# xPDFsuite Configuration #
[PDF]
wavelength = 0.1
dataformat = QA
inputfile = C_Tatania6-18.5-average.chi
backgroundfile = C_Tatania4-0.0-average.chi
mode = xray
bgscale = 0.985200981969
composition = TiO2
outputtype = iq
qmaxinst = 22.0
qmin = 0.0
qmax = 19.7626
rmax = 60.0
rmin = 0.0
rstep = 0.01
rpoly = 1.68

[Misc]
inputdir = /Users/sst/PycharmProjects/pdf-data-reduction-tutorial/notebooks/data/chi_bkgsub_false
savedir = /Users/sst/PycharmProjects/pdf-data-reduction-tutorial/notebooks/data/processed
backgroundfilefull = /Users/sst/PycharmProjects/pdf-data-reduction-tutorial/notebooks/data/chi_bkgsub_false/C_Tatania4-0.0-average.chi

#### start data
#S 1
#L Q($\AA^{-1}$)  intensity(a.u.)
0.0219978 1.11369
0.0447806 1.51828
0.0675634 1.89366
0.0903462 2.18652
0.113129 1.29004
0.135912 1.52812
0.158695 0.92152
0.181477 2.14604
0.20426 2.31951
0.227043 4.21944
0.249826 4.33239
0.272609 5.96622
0.295391 14.7551
0.318174 30.9802
0.340957 47.8772
0.36374 65.9021
0.386523 11.8048
0.409305 36.4024
0.432088 36.0208
0.454871 20.5599
0.477654 20.5102
0.500436 20.4835
0.523219 20.5174
0.546002 21.7657
0.568785 23.8369
0.591568 26.0834
0.61435 30.4264
0.637133 25.008
0.659916 22.9618
0.682699 21.9641
0.705482 23.337
0.728264 27.207
0.751047 31.3058
0.77383 33.1401
0.796613 33.5214
0.819396 34.4068
0.842178 34.115
0.864961 33.5181
0.887744 34.2694
0.910527 34.8535
0.93331 35.2086
0.956092 35.0805
0.978875 35.2785
1.00166 35.8857
1.02444 36.5343
1.04722 36.8175
1.07001 36.5205
1.09279 37.139
1.11557 37.682
1.13835 38.1564
1.16114 38.494
1.18392 39.706
1.2067 40.7448
1.22949 42.3058
1.25227 43.3552
1.27505 44.2234
1.29783 44.9376
1.32062 45.4919
1.3434 46.7056
1.36618 47.8953
1.38897 48.4654
1.41175 48.9905
1.43453 48.3628
1.45731 46.6881
1.4801 44.5086
1.50288 43.3998
1.52566 43.6856
1.54844 44.1452
1.57123 44.6462
1.59401 45.9458
1.61679 48.3965
1.63958 51.6211
1.66236 58.7491
1.68514 73.1219
1.70792 98.9418
1.73071 135.492
1.75349 171.953
1.77627 193.361
1.79906 187.582
1.82184 156.902
1.84462 115.467
1.8674 79.1122
1.89019 54.5021
1.91297 39.1896
1.93575 30.464
1.95854 25.3125
1.98132 22.0413
2.0041 19.8313
2.02688 18.0715
2.04967 16.0637
2.07245 12.988
2.09523 7.37238
2.11801 -3.06092
2.1408 -13.1037
2.16358 -23.6725
2.18636 -22.027
2.20915 -10.8512
2.23193 -1.5514
2.25471 2.39864
2.27749 2.94223
2.30028 2.52506
2.32306 1.97426
2.34584 1.13366
2.36863 0.482928
2.39141 -0.648049
2.41419 -2.91752
2.43697 -7.18538
2.45976 -14.5894
2.48254 -20.1888
2.50532 -17.4589
2.52811 -5.95176
2.55089 8.78584
2.57367 22.7732
2.59645 34.8958
2.61924 44.9609
2.64202 49.5662
2.6648 46.8246
2.68758 39.9493
2.71037 32.0572
2.73315 25.9912
2.75593 21.4728
2.77872 18.2793
2.8015 16.2823
2.82428 15.6042
2.84706 16.0434
2.86985 13.6521
2.89263 11.1885
2.91541 10.1894
2.9382 9.69403
2.96098 9.22882
2.98376 8.51207
3.00654 7.1033
3.02933 6.01353
3.05211 5.70012
3.07489 6.35584
3.09767 7.29798
3.12046 8.10491
3.14324 8.44131
3.16602 8.71216
3.18881 10.8391
3.21159 17.0538
3.23437 26.9366
3.25715 39.1756
3.27994 51.7597
3.30272 59.5503
3.3255 58.4624
3.34829 48.8525
3.37107 36.1051
3.39385 25.4101
3.41663 17.8475
3.43942 12.9005
3.4622 8.3504
3.48498 3.06027
3.50777 -3.10977
3.53055 -6.26178
3.55333 -2.95348
3.57611 5.87214
3.5989 16.1841
3.62168 26.7856
3.64446 39.1239
3.66724 51.983
3.69003 62.275
3.71281 67.7934
3.73559 67.473
3.75838 61.9087
3.78116 52.949
3.80394 42.407
3.82672 32.3695
3.84951 24.8765
3.87229 20.3032
3.89507 18.4701
3.91786 16.3411
3.94064 14.3584
3.96342 12.8638
3.9862 12.1094
4.00899 11.0992
4.03177 10.5168
4.05455 9.61336
4.07733 7.6494
4.10012 4.908
4.1229 2.75782
4.14568 4.76071
4.16847 12.8001
4.19125 23.7094
4.21403 32.9898
4.23681 36.7067
4.2596 35.314
4.28238 30.0381
4.30516 23.4813
4.32795 18.0256
4.35073 13.6393
4.37351 10.6038
4.39629 8.67846
4.41908 7.72938
4.44186 7.16822
4.46464 6.78637
4.48743 6.60015
4.51021 6.97685
4.53299 8.6379
4.55577 11.5069
4.57856 15.2786
4.60134 18.5518
4.62412 20.4634
4.6469 20.9703
4.66969 20.577
4.69247 18.76
4.71525 15.4474
4.73804 12.0994
4.76082 9.27446
4.7836 7.72537
4.80638 7.05349
4.82917 7.4319
4.85195 8.36817
4.87473 10.5625
4.89752 13.5864
4.9203 17.3566
4.94308 20.6311
4.96586 21.7601
4.98865 20.3011
5.01143 17.0582
5.03421 13.0582
5.057 9.525
5.07978 7.0803
5.10256 4.66085
5.12534 3.17399
5.14813 2.21671
5.17091 1.76588
5.19369 1.58724
5.21647 1.5159
5.23926 2.21583
5.26204 3.16218
5.28482 4.09515
5.30761 5.57142
5.33039 7.47698
5.35317 9.44528
5.37595 10.0793
5.39874 8.89031
5.42152 5.94207
5.4443 2.69094
5.46709 0.206963
5.48987 -1.31433
5.51265 -2.45721
5.53543 -3.14983
5.55822 -4.09261
5.581 -4.9588
5.60378 -5.31692
5.62656 -4.90695
5.64935 -3.87992
5.67213 -3.23139
5.69491 -2.60825
5.7177 -2.19945
5.74048 -1.96023
5.76326 -1.89779
5.78604 -1.82243
5.80883 -1.5499
5.83161 -0.558568
5.85439 0.449848
5.87718 2.04752
5.89996 4.04529
5.92274 6.31618
5.94552 8.26998
5.96831 9.88723
5.99109 10.4164
6.01387 9.51245
6.03666 7.76561
6.05944 5.86726
6.08222 4.42174
6.105 3.99912
6.12779 3.95102
6.15057 4.39943
6.17335 5.14186
6.19613 5.50169
6.21892 5.39413
6.2417 5.36766
6.26448 4.99881
6.28727 4.21511
6.31005 3.41484
6.33283 2.67029
6.35561 1.83964
6.3784 1.21768
6.40118 0.977836
6.42396 0.652742
6.44675 0.628103
6.46953 0.890054
6.49231 1.56181
6.51509 2.97554
6.53788 4.79285
6.56066 6.25368
6.58344 7.03515
6.60622 7.22717
6.62901 6.71513
6.65179 5.5367
6.67457 4.23149
6.69736 3.48793
6.72014 3.1977
6.74292 3.7976
6.7657 5.12874
6.78849 6.57736
6.81127 8.05386
6.83405 8.97436
6.85684 9.13508
6.87962 8.36017
6.9024 7.9001
6.92518 8.14803
6.94797 9.47457
6.97075 11.3143
6.99353 12.927
7.01632 13.1173
7.0391 12.277
7.06188 11.2775
7.08466 10.8945
7.10745 10.6088
7.13023 10.2523
7.15301 9.62781
7.17579 8.469
7.19858 7.16305
7.22136 6.0499
7.24414 5.34135
7.26693 5.12892
7.28971 5.29367
7.31249 5.31904
7.33527 5.84802
7.35806 6.50572
7.38084 7.25403
7.40362 7.96026
7.42641 8.16629
7.44919 7.83993
7.47197 7.42815
7.49475 7.18482
7.51754 7.11047
7.54032 7.528
7.5631 7.90188
7.58589 7.8811
7.60867 7.59697
7.63145 6.93531
7.65423 6.27212
7.67702 5.83525
7.6998 5.75585
7.72258 5.96762
7.74536 6.22173
7.76815 6.77322
7.79093 7.2624
7.81371 7.53666
7.8365 7.64874
7.85928 7.49777
7.88206 7.16534
7.90484 6.25654
7.92763 5.12808
7.95041 4.33581
7.97319 3.94998
7.99598 3.47969
8.01876 3.43223
8.04154 3.54598
8.06432 3.50743
8.08711 3.5066
8.10989 3.4691
8.13267 3.42542
8.15545 3.33142
8.17824 3.1321
8.20102 3.2259
8.2238 3.44749
8.24659 3.69808
8.26937 4.05891
8.29215 4.48138
8.31493 4.89535
8.33772 5.12333
8.3605 5.84831
8.38328 6.75093
8.40607 7.49791
8.42885 7.91364
8.45163 7.53984
8.47441 6.58965
8.4972 5.65969
8.51998 5.06598
8.54276 4.69037
8.56555 4.25771
8.58833 3.6959
8.61111 3.40127
8.63389 3.07613
8.65668 2.77276
8.67946 2.50164
8.70224 2.34955
8.72502 2.16997
8.74781 2.27008
8.77059 2.35285
8.79337 2.20103
8.81616 2.33699
8.83894 2.78765
8.86172 3.52364
8.8845 3.89177
8.90729 4.23269
8.93007 4.42975
8.95285 4.2847
8.97564 4.05726
8.99842 3.70565
9.0212 3.39187
9.04398 3.29837
9.06677 3.25293
9.08955 2.96722
9.11233 2.61457
9.13511 2.23341
9.1579 1.9673
9.18068 1.92144
9.20346 1.70652
9.22625 1.75622
9.24903 1.9681
9.27181 2.32385
9.29459 2.81184
9.31738 3.26637
9.34016 3.41437
9.36294 3.51498
9.38573 3.49543
9.40851 3.32417
9.43129 3.08378
9.45407 2.95193
9.47686 3.26686
9.49964 3.46763
9.52242 3.63319
9.54521 3.52935
9.56799 3.2742
9.59077 3.11506
9.61355 3.06553
9.63634 3.03277
9.65912 2.91127
9.6819 2.71936
9.70468 2.57356
9.72747 2.58501
9.75025 2.51486
9.77303 2.24151
9.79582 2.10114
9.8186 1.94539
9.84138 1.91821
9.86416 2.15854
9.88695 2.39718
9.90973 2.7274
9.93251 2.79309
9.9553 2.75332
9.97808 2.73701
10.0009 2.8875
10.0236 2.98148
10.0464 3.10468
10.0692 3.1878
10.092 3.27421
10.1148 3.23308
10.1376 3.28169
10.1603 3.40577
10.1831 3.59527
10.2059 3.74716
10.2287 3.88457
10.2515 3.99819
10.2743 3.9506
10.297 3.79096
10.3198 3.81613
10.3426 3.79496
10.3654 3.75465
10.3882 3.8911
10.411 4.31246
10.4337 4.7103
10.4565 4.99204
10.4793 5.04985
10.5021 5.11274
10.5249 5.217
10.5476 5.58762
10.5704 5.98505
10.5932 6.29553
10.616 6.53895
10.6388 6.55899
10.6616 6.41434
10.6843 6.21541
10.7071 6.026
10.7299 5.97043
10.7527 5.93487
10.7755 5.7608
10.7983 5.38717
10.821 5.00678
10.8438 4.68327
10.8666 4.33068
10.8894 4.01972
10.9122 3.79452
10.935 3.65742
10.9577 3.63842
10.9805 3.85494
11.0033 4.09896
11.0261 4.30164
11.0489 4.29802
11.0717 4.3684
11.0944 4.45218
11.1172 4.30536
11.14 4.12087
11.1628 3.81653
11.1856 3.52494
11.2083 3.36098
11.2311 3.34686
11.2539 3.24118
11.2767 3.12652
11.2995 3.13368
11.3223 3.09029
11.345 3.1329
11.3678 2.99255
11.3906 2.95646
11.4134 3.02329
11.4362 3.2281
11.459 3.38403
11.4817 3.49048
11.5045 3.68705
11.5273 3.93896
11.5501 4.18402
11.5729 4.43123
11.5957 4.45222
11.6184 4.44733
11.6412 4.70286
11.664 4.75827
11.6868 4.83953
11.7096 4.83664
11.7324 4.77094
11.7551 4.51251
11.7779 4.36429
11.8007 4.10261
11.8235 4.00506
11.8463 4.00548
11.8691 4.05584
11.8918 4.18867
11.9146 4.17223
11.9374 4.19469
11.9602 4.22286
11.983 4.19201
12.0057 4.29578
12.0285 4.33059
12.0513 4.27241
12.0741 4.20159
12.0969 4.23843
12.1197 4.24664
12.1424 4.19532
12.1652 4.12305
12.188 4.14574
12.2108 4.0784
12.2336 4.1165
12.2564 4.02857
12.2791 3.85168
12.3019 3.85578
12.3247 3.84055
12.3475 3.81887
12.3703 3.84069
12.3931 3.78964
12.4158 3.73768
12.4386 3.70051
12.4614 3.76254
12.4842 3.80073
12.507 3.66866
12.5298 3.6064
12.5525 3.53439
12.5753 3.36627
12.5981 3.32446
12.6209 3.25907
12.6437 3.17652
12.6664 3.08023
12.6892 2.87111
12.712 2.64476
12.7348 2.58685
12.7576 2.65871
12.7804 2.58049
12.8031 2.6166
12.8259 2.73633
12.8487 2.76917
12.8715 2.86043
12.8943 2.91864
12.9171 2.94319
12.9398 2.99364
12.9626 2.9691
12.9854 2.97283
13.0082 2.88701
13.031 2.82589
13.0538 2.85538
13.0765 2.93104
13.0993 2.97177
13.1221 2.85171
13.1449 2.85675
13.1677 2.88453
13.1905 2.9279
13.2132 3.05492
13.236 3.21428
13.2588 3.28552
13.2816 3.3214
13.3044 3.40681
13.3271 3.54586
13.3499 3.61049
13.3727 3.5693
13.3955 3.63353
13.4183 3.60235
13.4411 3.57424
13.4638 3.43396
13.4866 3.31872
13.5094 3.16772
13.5322 2.99767
13.555 2.96602
13.5778 2.95509
13.6005 3.05949
13.6233 3.04823
13.6461 3.00147
13.6689 3.00883
13.6917 3.11281
13.7145 3.0859
13.7372 3.03536
13.76 2.96717
13.7828 2.97739
13.8056 3.01729
13.8284 2.98483
13.8512 3.05228
13.8739 3.01591
13.8967 3.04052
13.9195 2.97919
13.9423 2.99472
13.9651 2.99137
13.9878 3.0581
14.0106 3.11513
14.0334 3.1846
14.0562 3.18606
14.079 3.13898
14.1018 3.04345
14.1245 3.08421
14.1473 3.26425
14.1701 3.21833
14.1929 3.35077
14.2157 3.45969
14.2385 3.46695
14.2612 3.3327
14.284 3.28608
14.3068 3.34387
14.3296 3.34014
14.3524 3.22498
14.3752 3.17777
14.3979 3.04922
14.4207 3.03601
14.4435 3.11682
14.4663 3.15548
14.4891 3.19902
14.5119 3.16251
14.5346 3.10266
14.5574 3.1277
14.5802 3.08602
14.603 3.14294
14.6258 3.15144
14.6486 3.04612
14.6713 3.07306
14.6941 3.05514
14.7169 3.06573
14.7397 3.14236
14.7625 3.11659
14.7852 3.2278
14.808 3.33235
14.8308 3.34858
14.8536 3.29169
14.8764 3.20553
14.8992 3.13177
14.9219 3.10881
14.9447 3.11323
14.9675 3.1168
14.9903 3.12765
15.0131 3.19503
15.0359 3.10387
15.0586 2.97612
15.0814 2.98943
15.1042 3.01158
15.127 3.05298
15.1498 2.91356
15.1726 2.83571
15.1953 2.86619
15.2181 2.82387
15.2409 2.81713
15.2637 2.83276
15.2865 2.89193
15.3093 2.78296
15.332 2.73895
15.3548 2.71616
15.3776 2.66899
15.4004 2.66663
15.4232 2.65358
15.4459 2.60853
15.4687 2.57968
15.4915 2.5259
15.5143 2.56334
15.5371 2.69466
15.5599 2.7392
15.5826 2.72101
15.6054 2.71155
15.6282 2.75492
15.651 2.78628
15.6738 2.75019
15.6966 2.66434
15.7193 2.63054
15.7421 2.60365
15.7649 2.55823
15.7877 2.52981
15.8105 2.50842
15.8333 2.61434
15.856 2.56941
15.8788 2.54114
15.9016 2.61486
15.9244 2.62902
15.9472 2.6621
15.97 2.57106
15.9927 2.51042
16.0155 2.53451
16.0383 2.51412
16.0611 2.52251
16.0839 2.55528
16.1066 2.68679
16.1294 2.63955
16.1522 2.52846
16.175 2.4427
16.1978 2.41903
16.2206 2.5448
16.2433 2.62101
16.2661 2.56616
16.2889 2.61918
16.3117 2.69666
16.3345 2.61034
16.3573 2.56369
16.38 2.60212
16.4028 2.58061
16.4256 2.62222
16.4484 2.61965
16.4712 2.66392
16.494 2.58239
16.5167 2.58483
16.5395 2.55578
16.5623 2.65385
16.5851 2.62694
16.6079 2.56534
16.6307 2.54119
16.6534 2.56656
16.6762 2.45723
16.699 2.47649
16.7218 2.51758
16.7446 2.44898
16.7674 2.43394
16.7901 2.45174
16.8129 2.46009
16.8357 2.36893
16.8585 2.35333
16.8813 2.34631
16.904 2.26009
16.9268 2.22333
16.9496 2.20749
16.9724 2.16426
16.9952 2.17983
17.018 2.11536
17.0407 2.13296
17.0635 2.15884
17.0863 2.06824
17.1091 2.07435
17.1319 2.17976
17.1547 2.10387
17.1774 1.95757
17.2002 1.94807
17.223 2.02589
17.2458 2.01848
17.2686 1.98201
17.2914 2.00584
17.3141 1.99697
17.3369 1.92598
17.3597 1.94811
17.3825 1.90286
17.4053 1.89104
17.4281 1.89495
17.4508 1.95115
17.4736 1.94209
17.4964 1.91629
17.5192 1.9119
17.542 1.87772
17.5647 1.94273
17.5875 1.91789
17.6103 1.97011
17.6331 1.93703
17.6559 1.95016
17.6787 1.92485
17.7014 1.93379
17.7242 1.84174
17.747 1.83237
17.7698 1.89927
17.7926 1.82946
17.8154 1.83309
17.8381 1.90828
17.8609 1.95971
17.8837 2.00342
17.9065 1.90321
17.9293 1.91242
17.9521 1.91194
17.9748 1.90475
17.9976 1.97653
18.0204 1.9379
18.0432 2.01134
18.066 2.00983
18.0888 1.89116
18.1115 1.95566
18.1343 1.91463
18.1571 1.85328
18.1799 1.90677
18.2027 1.84717
18.2254 1.87843
18.2482 1.83734
18.271 1.83628
18.2938 1.86801
18.3166 1.90163
18.3394 1.88414
18.3621 1.94146
18.3849 1.95383
18.4077 1.96607
18.4305 1.92931
18.4533 1.96805
18.4761 1.9744
18.4988 1.93357
18.5216 1.94586
18.5444 1.9916
18.5672 1.92023
18.59 1.92912
18.6128 1.94988
18.6355 1.91643
18.6583 1.92689
18.6811 1.95108
18.7039 1.93919
18.7267 1.95072
18.7495 1.99571
18.7722 1.96836
18.795 1.9106
18.8178 1.94676
18.8406 1.88596
18.8634 1.8674
18.8862 1.75857
18.9089 1.78156
18.9317 1.82698
18.9545 1.81912
18.9773 1.80312
19.0001 1.88188
19.0228 1.84378
19.0456 1.82376
19.0684 1.76369
19.0912 1.7108
19.114 1.73869
19.1368 1.80983
19.1595 1.71413
19.1823 1.79536
19.2051 1.78295
19.2279 1.75954
19.2507 1.75229
19.2735 1.77607
19.2962 1.76006
19.319 1.78568
19.3418 1.79351
19.3646 1.80242
19.3874 1.71932
19.4102 1.68149
19.4329 1.73483
19.4557 1.76545
19.4785 1.73095
19.5013 1.71498
19.5241 1.72652
19.5469 1.73013
19.5696 1.67159
19.5924 1.65926
19.6152 1.54063
19.638 1.63056
19.6608 1.65265
19.6835 1.63163
19.7063 1.57309
19.7291 1.586
19.7519 1.53653
19.7747 1.54503
19.7975 1.57099
19.8202 1.58072
19.843 1.51115
19.8658 1.49867
19.8886 1.51773
19.9114 1.54964
19.9342 1.48468
19.9569 1.50375
19.9797 1.5398
20.0025 1.57516
20.0253 1.53649
20.0481 1.5328
20.0709 1.5261
20.0936 1.46765
20.1164 1.49087
20.1392 1.43547
20.162 1.38616
20.1848 1.38981
20.2076 1.36004
20.2303 1.37514
20.2531 1.37394
20.2759 1.35821
20.2987 1.41431
20.3215 1.43902
20.3442 1.43932
20.367 1.32103
20.3898 1.3257
20.4126 1.38762
20.4354 1.39611
20.4582 1.33811
20.4809 1.3238
20.5037 1.30613
20.5265 1.28717
20.5493 1.3064
20.5721 1.33575
20.5949 1.3446
20.6176 1.26547
20.6404 1.28888
20.6632 1.31767
20.686 1.39472
20.7088 1.373
20.7316 1.33025
20.7543 1.30159
20.7771 1.23425
20.7999 1.24265
20.8227 1.26181
20.8455 1.29206
20.8683 1.28126
20.891 1.2838
20.9138 1.2098
20.9366 1.2251
20.9594 1.25171
20.9822 1.21145
21.0049 1.21153
21.0277 1.25537
21.0505 1.19547
21.0733 1.21
21.0961 1.20798
21.1189 1.1953
21.1416 1.20128
21.1644 1.19114
21.1872 1.21485
21.21 1.21567
21.2328 1.20652
21.2556 1.23982
21.2783 1.26828
21.3011 1.18387
21.3239 1.16991
21.3467 1.20972
21.3695 1.18782
21.3923 1.18334
21.415 1.14219
21.4378 1.22378
21.4606 1.20902
21.4834 1.2302
21.5062 1.16893
21.529 1.10665
21.5517 1.12551
21.5745 1.17296
21.5973 1.15692
21.6201 1.08871
21.6429 1.10567
21.6657 1.17643
21.6884 1.15806
21.7112 1.16483
21.734 1.19655
21.7568 1.1759
21.7796 1.14854
21.8023 1.10081
21.8251 1.08925
21.8479 1.11455
21.8707 1.17691
21.8935 1.16853
21.9163 1.14449
21.939 1.14359
21.9618 1.16114
21.9846 1.15281
