# xPDFsuite Configuration #
[PDF]
wavelength = 0.1
dataformat = QA
inputfile = C_Tatania6-16.8-average.chi
backgroundfile = C_Tatania4-0.0-average.chi
mode = xray
bgscale = 0.989367236572
composition = TiO2
outputtype = iq
qmaxinst = 22.0
qmin = 0.0
qmax = 19.7626
rmax = 60.0
rmin = 0.0
rstep = 0.01
rpoly = 1.68

[Misc]
inputdir = /Users/sst/PycharmProjects/pdf-data-reduction-tutorial/notebooks/data/chi_bkgsub_false
savedir = /Users/sst/PycharmProjects/pdf-data-reduction-tutorial/notebooks/data/processed
backgroundfilefull = /Users/sst/PycharmProjects/pdf-data-reduction-tutorial/notebooks/data/chi_bkgsub_false/C_Tatania4-0.0-average.chi

#### start data
#S 1
#L Q($\AA^{-1}$)  intensity(a.u.)
0.0219978 2.08814
0.0447806 2.74507
0.0675634 2.39737
0.0903462 1.1456
0.113129 1.77205
0.135912 1.22356
0.158695 0.984417
0.181477 1.94651
0.20426 1.92507
0.227043 4.33159
0.249826 4.67907
0.272609 6.12787
0.295391 19.5688
0.318174 34.757
0.340957 41.1153
0.36374 49.6582
0.386523 1.81229
0.409305 32.8926
0.432088 33.3322
0.454871 18.4741
0.477654 18.5466
0.500436 18.0772
0.523219 17.9581
0.546002 19.4841
0.568785 21.8646
0.591568 23.3246
0.61435 22.7594
0.637133 21.6877
0.659916 20.0129
0.682699 18.3657
0.705482 18.5388
0.728264 22.3769
0.751047 26.7103
0.77383 28.6385
0.796613 28.4482
0.819396 28.7595
0.842178 28.75
0.864961 28.5089
0.887744 28.4217
0.910527 28.4936
0.93331 28.8467
0.956092 28.8038
0.978875 28.6771
1.00166 28.7597
1.02444 29.008
1.04722 29.4922
1.07001 28.9831
1.09279 28.858
1.11557 28.6868
1.13835 28.6784
1.16114 28.8001
1.18392 29.1326
1.2067 29.435
1.22949 30.2124
1.25227 30.8988
1.27505 30.9177
1.29783 31.0129
1.32062 31.429
1.3434 32.3363
1.36618 33.0039
1.38897 32.7456
1.41175 32.4365
1.43453 31.4954
1.45731 29.8824
1.4801 27.5923
1.50288 25.9423
1.52566 25.3859
1.54844 25.9619
1.57123 27.0281
1.59401 28.9238
1.61679 31.9116
1.63958 36.3995
1.66236 47.101
1.68514 67.6973
1.70792 104.441
1.73071 155.237
1.75349 205.673
1.77627 234.99
1.79906 227.116
1.82184 186.12
1.84462 130.248
1.8674 80.841
1.89019 47.4191
1.91297 26.9409
1.93575 15.8531
1.95854 9.21809
1.98132 5.46933
2.0041 2.80309
2.02688 0.798168
2.04967 -0.831516
2.07245 -3.23207
2.09523 -8.67158
2.11801 -19.2292
2.1408 -29.5722
2.16358 -40.2777
2.18636 -38.2485
2.20915 -27.0296
2.23193 -17.7787
2.25471 -13.3203
2.27749 -11.9408
2.30028 -11.7244
2.32306 -12.074
2.34584 -12.8866
2.36863 -13.0232
2.39141 -13.646
2.41419 -15.3844
2.43697 -19.7182
2.45976 -26.5759
2.48254 -31.4158
2.50532 -27.0356
2.52811 -13.214
2.55089 4.09772
2.57367 21.0904
2.59645 36.8175
2.61924 49.9104
2.64202 55.814
2.6648 52.1774
2.68758 42.6565
2.71037 32.2197
2.73315 23.7324
2.75593 17.4455
2.77872 12.993
2.8015 10.0288
2.82428 8.93743
2.84706 9.01519
2.86985 6.3975
2.89263 4.45696
2.91541 2.47772
2.9382 1.81374
2.96098 1.50371
2.98376 0.854053
3.00654 -0.210268
3.02933 -1.29426
3.05211 -1.64503
3.07489 -1.33615
3.09767 -0.150687
3.12046 1.07609
3.14324 1.82456
3.16602 2.7411
3.18881 5.89362
3.21159 14.1018
3.23437 27.8584
3.25715 44.8913
3.27994 62.0939
3.30272 72.3824
3.3255 70.8525
3.34829 58.4418
3.37107 41.1746
3.39385 26.1279
3.41663 15.6347
3.43942 9.11595
3.4622 3.70964
3.48498 -2.75223
3.50777 -9.26451
3.53055 -12.237
3.55333 -8.08313
3.57611 1.87696
3.5989 14.0102
3.62168 27.0948
3.64446 42.97
3.66724 60.1013
3.69003 73.777
3.71281 81.0768
3.73559 80.6047
3.75838 73.7689
3.78116 61.9426
3.80394 47.5864
3.82672 34.0031
3.84951 23.779
3.87229 17.1439
3.89507 13.5847
3.91786 10.7986
3.94064 8.63497
3.96342 6.81447
3.9862 5.54681
4.00899 4.30818
4.03177 3.55508
4.05455 2.3885
4.07733 0.564779
4.10012 -1.69326
4.1229 -2.75076
4.14568 0.900453
4.16847 11.1733
4.19125 24.694
4.21403 36.2695
4.23681 40.7659
4.2596 38.0287
4.28238 31.2155
4.30516 22.2252
4.32795 14.3957
4.35073 8.43134
4.37351 4.64438
4.39629 2.41149
4.41908 0.80342
4.44186 -0.080021
4.46464 -0.429
4.48743 0.125113
4.51021 1.19439
4.53299 3.4965
4.55577 7.63876
4.57856 12.7062
4.60134 17.0566
4.62412 19.4472
4.6469 19.9311
4.66969 19.7711
4.69247 17.3105
4.71525 13.0606
4.73804 8.51535
4.76082 4.83311
4.7836 2.61715
4.80638 1.78607
4.82917 2.59553
4.85195 4.17702
4.87473 7.28725
4.89752 11.8219
4.9203 17.3809
4.94308 22.1585
4.96586 23.9979
4.98865 22.0137
5.01143 17.3642
5.03421 11.8321
5.057 6.84651
5.07978 3.42249
5.10256 0.284212
5.12534 -1.8256
5.14813 -3.17628
5.17091 -3.9831
5.19369 -4.19129
5.21647 -4.21982
5.23926 -3.54686
5.26204 -2.06583
5.28482 -0.135266
5.30761 2.28886
5.33039 5.47218
5.35317 8.56896
5.37595 9.74022
5.39874 8.10694
5.42152 4.11264
5.4443 0.106933
5.46709 -3.47063
5.48987 -5.81263
5.51265 -7.26406
5.53543 -8.33052
5.55822 -9.51215
5.581 -10.5372
5.60378 -10.6845
5.62656 -10.1496
5.64935 -9.13155
5.67213 -8.23851
5.69491 -7.62155
5.7177 -7.23658
5.74048 -6.95533
5.76326 -6.74788
5.78604 -6.63456
5.80883 -6.30145
5.83161 -4.92576
5.85439 -3.48201
5.87718 -1.46495
5.89996 1.37118
5.92274 4.46419
5.94552 7.01438
5.96831 8.99216
5.99109 9.63764
6.01387 8.69386
6.03666 6.44282
6.05944 3.9829
6.08222 1.99124
6.105 1.59189
6.12779 1.95117
6.15057 2.56649
6.17335 3.40246
6.19613 3.52713
6.21892 3.33054
6.2417 3.34256
6.26448 2.74478
6.28727 1.54808
6.31005 0.585755
6.33283 -0.209045
6.35561 -1.03695
6.3784 -1.81193
6.40118 -2.01161
6.42396 -2.18291
6.44675 -2.35333
6.46953 -1.88569
6.49231 -1.00802
6.51509 0.806879
6.53788 3.34858
6.56066 5.26543
6.58344 6.30636
6.60622 6.43656
6.62901 5.72116
6.65179 4.54231
6.67457 2.93615
6.69736 1.69056
6.72014 1.27924
6.74292 1.99135
6.7657 3.64384
6.78849 5.72908
6.81127 7.83886
6.83405 9.15641
6.85684 9.31718
6.87962 8.55456
6.9024 7.90942
6.92518 7.96554
6.94797 9.39023
6.97075 11.462
6.99353 13.4131
7.01632 14.107
7.0391 13.2594
7.06188 12.1898
7.08466 11.422
7.10745 11.1025
7.13023 10.657
7.15301 9.50564
7.17579 7.72755
7.19858 6.00154
7.22136 4.54057
7.24414 3.71361
7.26693 3.26318
7.28971 3.19904
7.31249 3.33381
7.33527 3.98644
7.35806 4.91147
7.38084 5.7994
7.40362 6.71181
7.42641 7.08524
7.44919 6.6793
7.47197 6.12881
7.49475 5.72849
7.51754 5.76389
7.54032 6.1688
7.5631 6.54767
7.58589 6.62023
7.60867 6.21082
7.63145 5.20662
7.65423 4.33077
7.67702 3.7511
7.6998 3.63933
7.72258 3.78668
7.74536 4.02413
7.76815 4.6097
7.79093 5.30919
7.81371 5.84174
7.8365 6.1039
7.85928 6.06086
7.88206 5.41774
7.90484 4.30477
7.92763 3.01185
7.95041 1.93333
7.97319 1.37383
7.99598 0.852561
8.01876 0.68558
8.04154 0.975432
8.06432 0.958636
8.08711 1.01689
8.10989 1.03267
8.13267 0.892914
8.15545 0.749863
8.17824 0.739423
8.20102 0.91651
8.2238 1.33344
8.24659 1.66894
8.26937 2.11134
8.29215 2.53731
8.31493 2.99305
8.33772 3.58908
8.3605 4.6951
8.38328 5.89377
8.40607 6.91711
8.42885 7.34112
8.45163 7.02075
8.47441 6.07555
8.4972 4.92478
8.51998 4.02731
8.54276 3.36508
8.56555 2.7314
8.58833 1.93134
8.61111 1.29739
8.63389 0.75421
8.65668 0.410014
8.67946 0.118725
8.70224 -0.0522703
8.72502 -0.0730168
8.74781 0.0645719
8.77059 0.100357
8.79337 0.0291549
8.81616 0.317329
8.83894 0.876566
8.86172 1.65416
8.8845 2.31289
8.90729 2.82348
8.93007 3.08886
8.95285 2.79831
8.97564 2.38976
8.99842 2.07408
9.0212 2.02884
9.04398 1.90769
9.06677 1.8527
9.08955 1.6998
9.11233 1.0764
9.13511 0.548175
9.1579 0.155381
9.18068 -0.163091
9.20346 -0.376173
9.22625 -0.195534
9.24903 0.167365
9.27181 0.64005
9.29459 1.22791
9.31738 1.87727
9.34016 2.22613
9.36294 2.31357
9.38573 2.20544
9.40851 1.92896
9.43129 1.69398
9.45407 1.51167
9.47686 1.8362
9.49964 2.24005
9.52242 2.4436
9.54521 2.33042
9.56799 1.96418
9.59077 1.69837
9.61355 1.60625
9.63634 1.60141
9.65912 1.43993
9.6819 1.31562
9.70468 1.24617
9.72747 1.33126
9.75025 1.24549
9.77303 0.759598
9.79582 0.562549
9.8186 0.328202
9.84138 0.408973
9.86416 0.619718
9.88695 0.915126
9.90973 1.19067
9.93251 1.39915
9.9553 1.6175
9.97808 1.61764
10.0009 1.65028
10.0236 1.78355
10.0464 1.96727
10.0692 2.0401
10.092 2.04931
10.1148 2.01782
10.1376 2.08469
10.1603 2.30739
10.1831 2.63064
10.2059 2.75303
10.2287 2.85129
10.2515 2.93531
10.2743 2.84288
10.297 2.65765
10.3198 2.65435
10.3426 2.68778
10.3654 2.84389
10.3882 2.9861
10.411 3.37669
10.4337 3.92151
10.4565 4.26283
10.4793 4.33469
10.5021 4.50569
10.5249 4.83645
10.5476 5.29139
10.5704 5.79277
10.5932 6.17808
10.616 6.30039
10.6388 6.24307
10.6616 6.10516
10.6843 5.88612
10.7071 5.71516
10.7299 5.52898
10.7527 5.38232
10.7755 5.13983
10.7983 4.74174
10.821 4.26894
10.8438 3.85701
10.8666 3.42664
10.8894 3.03129
10.9122 2.77062
10.935 2.59682
10.9577 2.53548
10.9805 2.70929
11.0033 3.01106
11.0261 3.29716
11.0489 3.30736
11.0717 3.36422
11.0944 3.38939
11.1172 3.11873
11.14 2.95706
11.1628 2.75116
11.1856 2.52184
11.2083 2.28638
11.2311 2.05041
11.2539 1.95859
11.2767 1.82284
11.2995 1.84169
11.3223 1.83317
11.345 1.89402
11.3678 1.81925
11.3906 1.72388
11.4134 1.73466
11.4362 1.86073
11.459 2.0151
11.4817 2.13442
11.5045 2.35334
11.5273 2.92604
11.5501 3.24604
11.5729 3.49615
11.5957 3.5912
11.6184 3.70662
11.6412 3.95157
11.664 4.04169
11.6868 3.96861
11.7096 3.91387
11.7324 3.83244
11.7551 3.63248
11.7779 3.45011
11.8007 3.0973
11.8235 2.95087
11.8463 2.90328
11.8691 2.94291
11.8918 3.05556
11.9146 3.23536
11.9374 3.23059
11.9602 3.16979
11.983 3.12797
12.0057 3.20856
12.0285 3.2719
12.0513 3.25629
12.0741 3.12158
12.0969 3.09518
12.1197 3.1842
12.1424 3.2041
12.1652 3.11414
12.188 3.07889
12.2108 3.04248
12.2336 2.98028
12.2564 2.87717
12.2791 2.75073
12.3019 2.67954
12.3247 2.70338
12.3475 2.78344
12.3703 2.87587
12.3931 2.75518
12.4158 2.63765
12.4386 2.53501
12.4614 2.55262
12.4842 2.68756
12.507 2.76896
12.5298 2.70459
12.5525 2.45391
12.5753 2.23424
12.5981 2.14847
12.6209 2.04887
12.6437 1.90942
12.6664 1.80042
12.6892 1.64514
12.712 1.46561
12.7348 1.35721
12.7576 1.42261
12.7804 1.33856
12.8031 1.34428
12.8259 1.39681
12.8487 1.49481
12.8715 1.64178
12.8943 1.82786
12.9171 1.82431
12.9398 1.80208
12.9626 1.84914
12.9854 1.8511
13.0082 1.82607
13.031 1.85154
13.0538 1.91708
13.0765 1.92343
13.0993 1.88656
13.1221 1.7971
13.1449 1.86549
13.1677 1.87864
13.1905 1.85909
13.2132 1.92533
13.236 2.06383
13.2588 2.29111
13.2816 2.3414
13.3044 2.45595
13.3271 2.654
13.3499 2.82851
13.3727 2.82748
13.3955 2.89404
13.4183 2.89106
13.4411 2.85928
13.4638 2.72102
13.4866 2.50642
13.5094 2.26719
13.5322 2.088
13.555 1.96856
13.5778 1.98808
13.6005 2.09336
13.6233 2.15762
13.6461 2.09161
13.6689 2.12193
13.6917 2.15097
13.7145 2.12138
13.7372 2.02239
13.76 2.03219
13.7828 2.02321
13.8056 2.04834
13.8284 2.06061
13.8512 2.11746
13.8739 2.06771
13.8967 2.04883
13.9195 2.13195
13.9423 2.24258
13.9651 2.24561
13.9878 2.17452
14.0106 2.21009
14.0334 2.17465
14.0562 2.08031
14.079 2.03554
14.1018 2.00824
14.1245 2.12438
14.1473 2.34385
14.1701 2.33961
14.1929 2.5169
14.2157 2.59529
14.2385 2.53765
14.2612 2.41254
14.284 2.37698
14.3068 2.39129
14.3296 2.37894
14.3524 2.25973
14.3752 2.09761
14.3979 2.01642
14.4207 2.05477
14.4435 2.16447
14.4663 2.15139
14.4891 2.23499
14.5119 2.31065
14.5346 2.22021
14.5574 2.25957
14.5802 2.21354
14.603 2.22919
14.6258 2.20049
14.6486 2.06827
14.6713 2.09762
14.6941 2.08124
14.7169 2.05321
14.7397 2.08071
14.7625 2.07554
14.7852 2.15104
14.808 2.22497
14.8308 2.2865
14.8536 2.28023
14.8764 2.24943
14.8992 2.24822
14.9219 2.23728
14.9447 2.17963
14.9675 2.23154
14.9903 2.18062
15.0131 2.16883
15.0359 2.14053
15.0586 2.0753
15.0814 2.09118
15.1042 2.02103
15.127 2.00086
15.1498 1.92746
15.1726 1.79243
15.1953 1.83093
15.2181 1.7838
15.2409 1.76451
15.2637 1.80387
15.2865 1.8618
15.3093 1.80732
15.332 1.76667
15.3548 1.77555
15.3776 1.75714
15.4004 1.66976
15.4232 1.68451
15.4459 1.68889
15.4687 1.65056
15.4915 1.59769
15.5143 1.63154
15.5371 1.72145
15.5599 1.75312
15.5826 1.82152
15.6054 1.83
15.6282 1.8594
15.651 1.87224
15.6738 1.85736
15.6966 1.78604
15.7193 1.66477
15.7421 1.59274
15.7649 1.49937
15.7877 1.45343
15.8105 1.38662
15.8333 1.51659
15.856 1.51704
15.8788 1.43747
15.9016 1.5379
15.9244 1.52138
15.9472 1.60688
15.97 1.5332
15.9927 1.44439
16.0155 1.48635
16.0383 1.49083
16.0611 1.5082
16.0839 1.59439
16.1066 1.67096
16.1294 1.64973
16.1522 1.63292
16.175 1.54736
16.1978 1.4452
16.2206 1.41946
16.2433 1.50756
16.2661 1.61993
16.2889 1.62817
16.3117 1.67408
16.3345 1.60395
16.3573 1.68502
16.38 1.69321
16.4028 1.71803
16.4256 1.72094
16.4484 1.69807
16.4712 1.63687
16.494 1.51648
16.5167 1.58139
16.5395 1.6216
16.5623 1.78108
16.5851 1.73767
16.6079 1.61202
16.6307 1.59985
16.6534 1.6686
16.6762 1.58981
16.699 1.56046
16.7218 1.58977
16.7446 1.51337
16.7674 1.54041
16.7901 1.5473
16.8129 1.44775
16.8357 1.37464
16.8585 1.43158
16.8813 1.44141
16.904 1.37168
16.9268 1.25713
16.9496 1.19741
16.9724 1.12034
16.9952 1.11513
17.018 1.06405
17.0407 1.02262
17.0635 1.16434
17.0863 1.13043
17.1091 1.05599
17.1319 1.08189
17.1547 1.05758
17.1774 0.959796
17.2002 0.913575
17.223 0.893716
17.2458 0.960944
17.2686 0.890732
17.2914 0.860606
17.3141 1.00896
17.3369 1.05554
17.3597 1.03111
17.3825 0.947328
17.4053 0.954232
17.4281 1.00485
17.4508 0.993631
17.4736 1.01373
17.4964 0.989288
17.5192 0.952366
17.542 0.898526
17.5647 0.945004
17.5875 0.938443
17.6103 0.967267
17.6331 0.970657
17.6559 0.923089
17.6787 0.911439
17.7014 0.945
17.7242 0.861383
17.747 0.864317
17.7698 0.920456
17.7926 0.896367
17.8154 0.886365
17.8381 0.926705
17.8609 0.927786
17.8837 0.971006
17.9065 0.89592
17.9293 0.917802
17.9521 0.852416
17.9748 0.877248
17.9976 0.949431
18.0204 0.943694
18.0432 0.979787
18.066 0.941471
18.0888 0.952342
18.1115 1.00107
18.1343 0.944312
18.1571 0.915858
18.1799 0.939345
18.2027 0.953725
18.2254 0.997951
18.2482 0.964448
18.271 0.908564
18.2938 0.941166
18.3166 1.05623
18.3394 1.02931
18.3621 0.994395
18.3849 0.991066
18.4077 1.03752
18.4305 1.02537
18.4533 0.96779
18.4761 1.02134
18.4988 0.990237
18.5216 0.984007
18.5444 1.00535
18.5672 0.981803
18.59 0.971286
18.6128 1.01848
18.6355 1.01132
18.6583 0.993992
18.6811 0.934394
18.7039 0.89992
18.7267 0.950654
18.7495 1.01982
18.7722 1.06009
18.795 1.01578
18.8178 0.978984
18.8406 0.955644
18.8634 0.89823
18.8862 0.83138
18.9089 0.944331
18.9317 0.98851
18.9545 0.99441
18.9773 0.985211
19.0001 1.01094
19.0228 0.962234
19.0456 0.937244
19.0684 0.88054
19.0912 0.8421
19.114 0.842187
19.1368 0.917931
19.1595 0.858327
19.1823 0.869817
19.2051 0.801152
19.2279 0.824829
19.2507 0.919197
19.2735 0.872214
19.2962 0.892589
19.319 0.914233
19.3418 0.840153
19.3646 0.836302
19.3874 0.788736
19.4102 0.8147
19.4329 0.804389
19.4557 0.86218
19.4785 0.790341
19.5013 0.793242
19.5241 0.793933
19.5469 0.772283
19.5696 0.754228
19.5924 0.753612
19.6152 0.646827
19.638 0.650645
19.6608 0.680703
19.6835 0.702614
19.7063 0.723284
19.7291 0.689254
19.7519 0.645162
19.7747 0.619048
19.7975 0.651453
19.8202 0.643139
19.843 0.633947
19.8658 0.629785
19.8886 0.630925
19.9114 0.636269
19.9342 0.595553
19.9569 0.607494
19.9797 0.607968
20.0025 0.659136
20.0253 0.674216
20.0481 0.671132
20.0709 0.649931
20.0936 0.569761
20.1164 0.581673
20.1392 0.581782
20.162 0.553037
20.1848 0.535487
20.2076 0.483796
20.2303 0.485314
20.2531 0.509956
20.2759 0.551069
20.2987 0.566572
20.3215 0.545677
20.3442 0.50551
20.367 0.477918
20.3898 0.486619
20.4126 0.487203
20.4354 0.496112
20.4582 0.445941
20.4809 0.441155
20.5037 0.464554
20.5265 0.41479
20.5493 0.452184
20.5721 0.494088
20.5949 0.449768
20.6176 0.385434
20.6404 0.409945
20.6632 0.435825
20.686 0.46717
20.7088 0.399025
20.7316 0.344725
20.7543 0.348312
20.7771 0.373111
20.7999 0.424792
20.8227 0.427973
20.8455 0.41707
20.8683 0.391081
20.891 0.40045
20.9138 0.398118
20.9366 0.42457
20.9594 0.415852
20.9822 0.351681
21.0049 0.322246
21.0277 0.339275
21.0505 0.352555
21.0733 0.367949
21.0961 0.356196
21.1189 0.35238
21.1416 0.345678
21.1644 0.311562
21.1872 0.356402
21.21 0.341834
21.2328 0.288481
21.2556 0.316702
21.2783 0.338056
21.3011 0.26535
21.3239 0.326952
21.3467 0.364711
21.3695 0.348937
21.3923 0.3079
21.415 0.309846
21.4378 0.346495
21.4606 0.291076
21.4834 0.317361
21.5062 0.38828
21.529 0.340333
21.5517 0.346769
21.5745 0.350372
21.5973 0.301614
21.6201 0.271013
21.6429 0.26527
21.6657 0.30359
21.6884 0.282613
21.7112 0.305079
21.734 0.300294
21.7568 0.257951
21.7796 0.184068
21.8023 0.210838
21.8251 0.204514
21.8479 0.235239
21.8707 0.281963
21.8935 0.312474
21.9163 0.278989
21.939 0.29532
21.9618 0.317519
21.9846 0.301682
