# xPDFsuite Configuration #
[PDF]
wavelength = 0.1
dataformat = QA
inputfile = C_Tatania6-15.5-average.chi
backgroundfile = C_Tatania4-0.0-average.chi
mode = xray
bgscale = 0.987986559175
composition = TiO2
outputtype = iq
qmaxinst = 22.0
qmin = 0.0
qmax = 20.042
rmax = 60.0
rmin = 0.0
rstep = 0.01
rpoly = 1.68

[Misc]
inputdir = /Users/sst/PycharmProjects/pdf-data-reduction-tutorial/notebooks/data/chi_bkgsub_false
savedir = /Users/sst/PycharmProjects/pdf-data-reduction-tutorial/notebooks/data/processed
backgroundfilefull = /Users/sst/PycharmProjects/pdf-data-reduction-tutorial/notebooks/data/chi_bkgsub_false/C_Tatania4-0.0-average.chi

#### start data
#S 1
#L Q($\AA^{-1}$)  intensity(a.u.)
0.0219978 1.66567
0.0447806 1.68272
0.0675634 2.47441
0.0903462 1.65778
0.113129 1.94093
0.135912 1.77851
0.158695 1.53766
0.181477 1.96643
0.20426 1.92181
0.227043 4.4646
0.249826 4.18783
0.272609 5.52593
0.295391 16.6479
0.318174 31.2954
0.340957 41.2855
0.36374 52.8863
0.386523 3.96542
0.409305 33.2794
0.432088 33.4915
0.454871 18.1546
0.477654 18.4108
0.500436 18.3369
0.523219 18.21
0.546002 19.4461
0.568785 17.3124
0.591568 6.6544
0.61435 12.5324
0.637133 21.3771
0.659916 20.9479
0.682699 19.8649
0.705482 20.8564
0.728264 24.5085
0.751047 28.9382
0.77383 30.6853
0.796613 30.7543
0.819396 31.3393
0.842178 31.2879
0.864961 31.0502
0.887744 31.3847
0.910527 31.3526
0.93331 31.2309
0.956092 31.0441
0.978875 31.1471
1.00166 31.8647
1.02444 32.1095
1.04722 31.8464
1.07001 31.6983
1.09279 32.1973
1.11557 32.8917
1.13835 33.0351
1.16114 33.0499
1.18392 33.8479
1.2067 34.2585
1.22949 35.3914
1.25227 35.6814
1.27505 35.5839
1.29783 35.8813
1.32062 36.1129
1.3434 37.2707
1.36618 38.2998
1.38897 38.8654
1.41175 38.4607
1.43453 37.5502
1.45731 36.2333
1.4801 33.8323
1.50288 32.4155
1.52566 32.4839
1.54844 32.8768
1.57123 33.8338
1.59401 35.4358
1.61679 38.228
1.63958 42.9827
1.66236 53.3858
1.68514 73.9506
1.70792 111.332
1.73071 165.764
1.75349 221.627
1.77627 256.114
1.79906 249.564
1.82184 205.714
1.84462 144.762
1.8674 91.6284
1.89019 56.377
1.91297 34.7455
1.93575 23.2886
1.95854 16.0022
1.98132 11.5397
2.0041 8.38836
2.02688 6.51691
2.04967 4.56767
2.07245 1.84558
2.09523 -3.44716
2.11801 -12.7539
2.1408 -22.2643
2.16358 -32.8504
2.18636 -32.1287
2.20915 -21.7454
2.23193 -12.7811
2.25471 -8.66797
2.27749 -7.68307
2.30028 -8.21002
2.32306 -8.97388
2.34584 -9.51336
2.36863 -9.49649
2.39141 -9.81189
2.41419 -11.6711
2.43697 -15.6036
2.45976 -21.5297
2.48254 -25.7497
2.50532 -22.1276
2.52811 -9.14868
2.55089 7.95971
2.57367 25.5796
2.59645 42.2667
2.61924 57.0686
2.64202 64.1751
2.6648 60.2455
2.68758 49.5239
2.71037 37.5702
2.73315 28.2417
2.75593 21.3031
2.77872 16.3576
2.8015 13.3387
2.82428 12.3847
2.84706 12.4453
2.86985 9.90164
2.89263 7.46167
2.91541 5.68444
2.9382 5.18662
2.96098 4.8982
2.98376 4.03486
3.00654 2.46409
3.02933 1.30021
3.05211 0.974948
3.07489 1.84355
3.09767 3.29868
3.12046 4.38196
3.14324 5.12718
3.16602 5.9486
3.18881 9.05572
3.21159 17.1558
3.23437 30.7129
3.25715 48.5077
3.27994 67.4373
3.30272 79.8189
3.3255 79.2218
3.34829 66.2991
3.37107 47.675
3.39385 31.3248
3.41663 19.6972
3.43942 12.3671
3.4622 7.2245
3.48498 1.30716
3.50777 -4.8584
3.53055 -7.38612
3.55333 -4.08606
3.57611 5.03359
3.5989 16.4728
3.62168 29.5296
3.64446 45.8438
3.66724 64.2499
3.69003 80.1536
3.71281 88.8986
3.73559 88.968
3.75838 81.931
3.78116 70.0965
3.80394 55.0256
3.82672 40.1252
3.84951 28.9096
3.87229 21.3427
3.89507 17.0318
3.91786 14.1856
3.94064 11.7726
3.96342 10.0146
3.9862 8.99592
4.00899 7.79601
4.03177 7.0664
4.05455 6.13776
4.07733 4.8775
4.10012 2.65427
4.1229 1.57612
4.14568 4.99116
4.16847 15.1738
4.19125 29.3517
4.21403 42.0545
4.23681 47.6261
4.2596 45.6254
4.28238 37.2943
4.30516 27.0576
4.32795 18.5071
4.35073 12.2541
4.37351 8.13367
4.39629 5.54502
4.41908 3.83769
4.44186 3.06944
4.46464 2.72293
4.48743 3.62594
4.51021 4.09784
4.53299 6.08409
4.55577 10.4857
4.57856 16.0903
4.60134 21.0785
4.62412 23.6943
4.6469 24.3946
4.66969 24.17
4.69247 21.8694
4.71525 17.6431
4.73804 12.6787
4.76082 8.46739
4.7836 5.8622
4.80638 4.83264
4.82917 5.83483
4.85195 6.97871
4.87473 9.63778
4.89752 14.5013
4.9203 20.6985
4.94308 26.5294
4.96586 29.1128
4.98865 27.5154
5.01143 22.9739
5.03421 16.3986
5.057 10.8382
5.07978 6.61137
5.10256 2.8705
5.12534 0.586448
5.14813 -0.72734
5.17091 -1.5084
5.19369 -1.63296
5.21647 -1.56865
5.23926 -1.14126
5.26204 0.230649
5.28482 2.01219
5.30761 4.48782
5.33039 7.84669
5.35317 11.6331
5.37595 13.5008
5.39874 12.6581
5.42152 8.96329
5.4443 3.75467
5.46709 -0.384176
5.48987 -3.02344
5.51265 -4.88253
5.53543 -6.10087
5.55822 -7.13073
5.581 -8.15302
5.60378 -8.38942
5.62656 -7.88333
5.64935 -6.72949
5.67213 -5.95281
5.69491 -5.80828
5.7177 -5.32958
5.74048 -5.08955
5.76326 -4.87499
5.78604 -4.70856
5.80883 -4.47688
5.83161 -3.55958
5.85439 -1.92517
5.87718 0.384203
5.89996 3.18131
5.92274 6.22969
5.94552 8.94516
5.96831 11.3468
5.99109 12.3039
6.01387 11.4085
6.03666 9.01393
6.05944 6.77323
6.08222 4.95799
6.105 3.86697
6.12779 3.79052
6.15057 4.56091
6.17335 5.50108
6.19613 5.97953
6.21892 5.81435
6.2417 5.6226
6.26448 4.96519
6.28727 3.84288
6.31005 2.79429
6.33283 1.7403
6.35561 0.751533
6.3784 -0.149055
6.40118 -0.66074
6.42396 -0.72026
6.44675 -0.511687
6.46953 -0.114211
6.49231 0.622546
6.51509 2.45278
6.53788 5.21541
6.56066 7.36698
6.58344 8.64581
6.60622 9.0477
6.62901 8.24182
6.65179 6.66917
6.67457 4.93371
6.69736 3.63153
6.72014 3.09096
6.74292 3.71038
6.7657 5.26781
6.78849 7.50156
6.81127 10.045
6.83405 11.6302
6.85684 11.7997
6.87962 10.8651
6.9024 9.95533
6.92518 9.96077
6.94797 11.4345
6.97075 13.8302
6.99353 16.1102
7.01632 16.6863
7.0391 15.6619
7.06188 14.207
7.08466 13.3329
7.10745 13.0773
7.13023 12.6682
7.15301 11.5648
7.17579 9.93018
7.19858 8.20888
7.22136 6.51755
7.24414 5.41075
7.26693 4.86465
7.28971 4.84516
7.31249 4.98347
7.33527 5.62889
7.35806 6.41815
7.38084 7.54654
7.40362 8.69822
7.42641 9.12319
7.44919 8.80078
7.47197 8.15252
7.49475 7.47786
7.51754 7.39199
7.54032 7.81109
7.5631 8.22828
7.58589 8.41938
7.60867 7.98839
7.63145 7.02802
7.65423 6.10704
7.67702 5.57862
7.6998 5.40796
7.72258 5.56644
7.74536 5.89476
7.76815 6.39497
7.79093 6.90135
7.81371 7.42278
7.8365 7.8469
7.85928 7.99854
7.88206 7.44832
7.90484 6.19474
7.92763 4.9363
7.95041 3.8262
7.97319 3.1366
7.99598 2.589
8.01876 2.4812
8.04154 2.6417
8.06432 2.67133
8.08711 2.57825
8.10989 2.58362
8.13267 2.49691
8.15545 2.34957
8.17824 2.28553
8.20102 2.28221
8.2238 2.50673
8.24659 2.9646
8.26937 3.55751
8.29215 4.23167
8.31493 4.76919
8.33772 5.2529
8.3605 6.22561
8.38328 7.57628
8.40607 8.84286
8.42885 9.60781
8.45163 9.23134
8.47441 8.03918
8.4972 6.69636
8.51998 5.75351
8.54276 5.21818
8.56555 4.56187
8.58833 3.88225
8.61111 3.20477
8.63389 2.50364
8.65668 2.05974
8.67946 1.80587
8.70224 1.6422
8.72502 1.3702
8.74781 1.40232
8.77059 1.55879
8.79337 1.54041
8.81616 1.73554
8.83894 2.15062
8.86172 3.00871
8.8845 3.80259
8.90729 4.44232
8.93007 4.8673
8.95285 4.52762
8.97564 4.1378
8.99842 3.71084
9.0212 3.44312
9.04398 3.31688
9.06677 3.38644
9.08955 3.15697
9.11233 2.52818
9.13511 1.98835
9.1579 1.59948
9.18068 1.31958
9.20346 1.15826
9.22625 1.19263
9.24903 1.3699
9.27181 1.7493
9.29459 2.3569
9.31738 3.19268
9.34016 3.68829
9.36294 3.79217
9.38573 3.63528
9.40851 3.37124
9.43129 2.98716
9.45407 2.8967
9.47686 3.25507
9.49964 3.62493
9.52242 3.95118
9.54521 3.93149
9.56799 3.61098
9.59077 3.17298
9.61355 3.04998
9.63634 3.02903
9.65912 2.92317
9.6819 2.8421
9.70468 2.75044
9.72747 2.74794
9.75025 2.58941
9.77303 2.11429
9.79582 1.7928
9.8186 1.56211
9.84138 1.58663
9.86416 1.73013
9.88695 1.98477
9.90973 2.39642
9.93251 2.71233
9.9553 2.78227
9.97808 2.86427
10.0009 2.94432
10.0236 3.00273
10.0464 3.26046
10.0692 3.41859
10.092 3.44131
10.1148 3.28403
10.1376 3.39266
10.1603 3.67585
10.1831 3.93654
10.2059 4.13456
10.2287 4.28203
10.2515 4.33383
10.2743 4.21511
10.297 3.95732
10.3198 3.90001
10.3426 3.76295
10.3654 3.80208
10.3882 4.05774
10.411 4.58631
10.4337 5.22236
10.4565 5.63197
10.4793 5.73221
10.5021 5.72914
10.5249 5.87977
10.5476 6.35216
10.5704 6.95801
10.5932 7.46117
10.616 7.704
10.6388 7.73119
10.6616 7.50711
10.6843 7.30472
10.7071 7.18452
10.7299 7.02259
10.7527 6.887
10.7755 6.57853
10.7983 6.19688
10.821 5.70036
10.8438 5.25597
10.8666 4.85969
10.8894 4.34689
10.9122 3.95215
10.935 3.75774
10.9577 3.71479
10.9805 3.78574
11.0033 4.07006
11.0261 4.41494
11.0489 4.43622
11.0717 4.4665
11.0944 4.55477
11.1172 4.48004
11.14 4.40733
11.1628 4.18933
11.1856 3.77062
11.2083 3.42842
11.2311 3.23533
11.2539 3.09652
11.2767 2.96571
11.2995 2.91473
11.3223 2.81938
11.345 2.756
11.3678 2.704
11.3906 2.74787
11.4134 2.8228
11.4362 2.81785
11.459 3.06993
11.4817 3.21115
11.5045 3.5122
11.5273 3.90224
11.5501 4.29926
11.5729 4.6243
11.5957 4.88595
11.6184 4.93904
11.6412 5.05142
11.664 5.13571
11.6868 5.15908
11.7096 5.18574
11.7324 5.11648
11.7551 4.82952
11.7779 4.50064
11.8007 4.21297
11.8235 4.12758
11.8463 4.00719
11.8691 3.89296
11.8918 3.97784
11.9146 4.06937
11.9374 4.08547
11.9602 4.26383
11.983 4.22647
12.0057 4.31155
12.0285 4.38492
12.0513 4.36472
12.0741 4.21679
12.0969 4.23493
12.1197 4.25482
12.1424 4.15511
12.1652 4.07008
12.188 4.15135
12.2108 4.12134
12.2336 4.10894
12.2564 4.01083
12.2791 3.86478
12.3019 3.88183
12.3247 3.92238
12.3475 3.94054
12.3703 3.96376
12.3931 3.82238
12.4158 3.67321
12.4386 3.57326
12.4614 3.69865
12.4842 3.78979
12.507 3.78197
12.5298 3.76668
12.5525 3.5884
12.5753 3.35023
12.5981 3.17832
12.6209 3.04837
12.6437 2.96089
12.6664 2.89951
12.6892 2.75177
12.712 2.54581
12.7348 2.44026
12.7576 2.3939
12.7804 2.3035
12.8031 2.3111
12.8259 2.42487
12.8487 2.50834
12.8715 2.70635
12.8943 2.79664
12.9171 2.89785
12.9398 2.88703
12.9626 2.89339
12.9854 2.87578
13.0082 2.81793
13.031 2.85571
13.0538 2.81308
13.0765 2.80573
13.0993 2.83751
13.1221 2.81822
13.1449 2.80456
13.1677 2.7952
13.1905 2.78394
13.2132 2.94533
13.236 3.08592
13.2588 3.23853
13.2816 3.28457
13.3044 3.41031
13.3271 3.63205
13.3499 3.75612
13.3727 3.7866
13.3955 3.82631
13.4183 3.84304
13.4411 3.82856
13.4638 3.65885
13.4866 3.50367
13.5094 3.26213
13.5322 3.08447
13.555 3.03536
13.5778 2.99059
13.6005 3.04953
13.6233 3.11905
13.6461 3.1117
13.6689 3.09542
13.6917 3.11002
13.7145 3.06837
13.7372 3.0799
13.76 3.09212
13.7828 3.05869
13.8056 3.07571
13.8284 2.99875
13.8512 3.03092
13.8739 3.05168
13.8967 3.06462
13.9195 3.04027
13.9423 3.1521
13.9651 3.07026
13.9878 2.96021
14.0106 3.00075
14.0334 3.02838
14.0562 3.07168
14.079 3.04905
14.1018 2.99795
14.1245 3.05254
14.1473 3.21154
14.1701 3.14905
14.1929 3.30503
14.2157 3.41887
14.2385 3.39401
14.2612 3.31872
14.284 3.28538
14.3068 3.23753
14.3296 3.2636
14.3524 3.17347
14.3752 3.02344
14.3979 2.906
14.4207 2.8937
14.4435 3.01254
14.4663 3.04602
14.4891 3.06817
14.5119 3.06426
14.5346 3.02757
14.5574 3.06907
14.5802 3.081
14.603 3.14887
14.6258 3.10195
14.6486 2.96317
14.6713 2.97399
14.6941 2.95967
14.7169 3.01385
14.7397 3.05627
14.7625 3.04125
14.7852 3.17612
14.808 3.12529
14.8308 3.1349
14.8536 3.10996
14.8764 3.13284
14.8992 3.11467
14.9219 3.17694
14.9447 3.12637
14.9675 3.10883
14.9903 3.0312
15.0131 3.00306
15.0359 2.99893
15.0586 2.921
15.0814 2.85714
15.1042 2.85286
15.127 2.90142
15.1498 2.86225
15.1726 2.71203
15.1953 2.6808
15.2181 2.6622
15.2409 2.70023
15.2637 2.68564
15.2865 2.73218
15.3093 2.6734
15.332 2.60585
15.3548 2.59148
15.3776 2.64975
15.4004 2.5843
15.4232 2.47549
15.4459 2.41768
15.4687 2.30455
15.4915 2.26655
15.5143 2.39943
15.5371 2.50963
15.5599 2.58949
15.5826 2.60961
15.6054 2.61768
15.6282 2.62311
15.651 2.61976
15.6738 2.60858
15.6966 2.54266
15.7193 2.44945
15.7421 2.36715
15.7649 2.31696
15.7877 2.32361
15.8105 2.23167
15.8333 2.30345
15.856 2.25874
15.8788 2.25077
15.9016 2.30991
15.9244 2.24009
15.9472 2.34652
15.97 2.2525
15.9927 2.2094
16.0155 2.25341
16.0383 2.25471
16.0611 2.30183
16.0839 2.27513
16.1066 2.37125
16.1294 2.34168
16.1522 2.26442
16.175 2.22213
16.1978 2.21128
16.2206 2.26664
16.2433 2.35972
16.2661 2.38062
16.2889 2.43919
16.3117 2.39496
16.3345 2.32695
16.3573 2.35535
16.38 2.41133
16.4028 2.46696
16.4256 2.39017
16.4484 2.406
16.4712 2.42564
16.494 2.35462
16.5167 2.40005
16.5395 2.31747
16.5623 2.42157
16.5851 2.42262
16.6079 2.3979
16.6307 2.41297
16.6534 2.41688
16.6762 2.337
16.699 2.2961
16.7218 2.29805
16.7446 2.25508
16.7674 2.17601
16.7901 2.19474
16.8129 2.17159
16.8357 2.0895
16.8585 2.13345
16.8813 2.12963
16.904 2.13957
16.9268 2.05543
16.9496 1.98531
16.9724 1.91946
16.9952 1.93542
17.018 1.78598
17.0407 1.72325
17.0635 1.81819
17.0863 1.80709
17.1091 1.82081
17.1319 1.86136
17.1547 1.81969
17.1774 1.64411
17.2002 1.65253
17.223 1.61865
17.2458 1.6062
17.2686 1.60482
17.2914 1.62634
17.3141 1.68507
17.3369 1.70216
17.3597 1.65553
17.3825 1.56661
17.4053 1.59781
17.4281 1.65641
17.4508 1.74724
17.4736 1.67596
17.4964 1.68386
17.5192 1.64896
17.542 1.59332
17.5647 1.63011
17.5875 1.59983
17.6103 1.65276
17.6331 1.6769
17.6559 1.64801
17.6787 1.61978
17.7014 1.59992
17.7242 1.56059
17.747 1.53653
17.7698 1.5732
17.7926 1.51305
17.8154 1.51043
17.8381 1.63186
17.8609 1.68249
17.8837 1.74349
17.9065 1.63253
17.9293 1.64643
17.9521 1.59216
17.9748 1.54356
17.9976 1.57991
18.0204 1.55298
18.0432 1.69399
18.066 1.64283
18.0888 1.57499
18.1115 1.64534
18.1343 1.6005
18.1571 1.60339
18.1799 1.60333
18.2027 1.58075
18.2254 1.60706
18.2482 1.62007
18.271 1.65638
18.2938 1.67552
18.3166 1.72177
18.3394 1.6711
18.3621 1.63197
18.3849 1.68351
18.4077 1.70553
18.4305 1.6182
18.4533 1.58979
18.4761 1.64094
18.4988 1.65836
18.5216 1.62762
18.5444 1.61704
18.5672 1.58485
18.59 1.6123
18.6128 1.63723
18.6355 1.66861
18.6583 1.69819
18.6811 1.70618
18.7039 1.70211
18.7267 1.69309
18.7495 1.77072
18.7722 1.66979
18.795 1.63955
18.8178 1.61124
18.8406 1.60995
18.8634 1.58876
18.8862 1.53449
18.9089 1.53986
18.9317 1.58243
18.9545 1.56228
18.9773 1.53088
19.0001 1.57526
19.0228 1.56709
19.0456 1.51487
19.0684 1.46218
19.0912 1.43846
19.114 1.43449
19.1368 1.45964
19.1595 1.41903
19.1823 1.50364
19.2051 1.48727
19.2279 1.4632
19.2507 1.53616
19.2735 1.5657
19.2962 1.45956
19.319 1.45261
19.3418 1.45182
19.3646 1.528
19.3874 1.44003
19.4102 1.43611
19.4329 1.41095
19.4557 1.45605
19.4785 1.41749
19.5013 1.37003
19.5241 1.36
19.5469 1.37021
19.5696 1.38895
19.5924 1.38864
19.6152 1.34332
19.638 1.28528
19.6608 1.32238
19.6835 1.37285
19.7063 1.35349
19.7291 1.24965
19.7519 1.22107
19.7747 1.18127
19.7975 1.19457
19.8202 1.19837
19.843 1.18182
19.8658 1.19623
19.8886 1.18336
19.9114 1.23411
19.9342 1.21363
19.9569 1.20948
19.9797 1.15385
20.0025 1.19223
20.0253 1.19747
20.0481 1.20179
20.0709 1.18289
20.0936 1.1658
20.1164 1.15152
20.1392 1.08152
20.162 1.06251
20.1848 1.0562
20.2076 1.01572
20.2303 1.05677
20.2531 1.07641
20.2759 1.10508
20.2987 1.13469
20.3215 1.13003
20.3442 1.14029
20.367 1.08008
20.3898 1.07055
20.4126 1.07678
20.4354 1.05695
20.4582 1.03205
20.4809 1.03802
20.5037 1.02597
20.5265 0.94145
20.5493 0.979693
20.5721 0.986024
20.5949 0.961695
20.6176 0.90594
20.6404 0.971075
20.6632 0.993509
20.686 1.00449
20.7088 0.94263
20.7316 0.974207
20.7543 0.996429
20.7771 0.924085
20.7999 0.931189
20.8227 0.93973
20.8455 0.966349
20.8683 0.961998
20.891 0.979161
20.9138 0.936415
20.9366 0.96072
20.9594 0.947887
20.9822 0.90039
21.0049 0.861767
21.0277 0.89947
21.0505 0.885066
21.0733 0.912411
21.0961 0.890972
21.1189 0.855951
21.1416 0.885935
21.1644 0.890956
21.1872 0.876122
21.21 0.825469
21.2328 0.81901
21.2556 0.846134
21.2783 0.83954
21.3011 0.77696
21.3239 0.757817
21.3467 0.803266
21.3695 0.812648
21.3923 0.843503
21.415 0.86346
21.4378 0.891833
21.4606 0.884861
21.4834 0.891826
21.5062 0.811457
21.529 0.778097
21.5517 0.840445
21.5745 0.824878
21.5973 0.840001
21.6201 0.812397
21.6429 0.7888
21.6657 0.819104
21.6884 0.777009
21.7112 0.80394
21.734 0.830266
21.7568 0.808964
21.7796 0.803711
21.8023 0.778036
21.8251 0.751101
21.8479 0.73289
21.8707 0.77357
21.8935 0.780555
21.9163 0.729125
21.939 0.781372
21.9618 0.771709
21.9846 0.774577
