# xPDFsuite Configuration #
[PDF]
wavelength = 0.1
dataformat = QA
inputfile = C_Tatania1-49.5-average.chi
backgroundfile = C_Tatania4-0.0-average.chi
mode = xray
bgscale = 0.994938390984
composition = TiO2
outputtype = iq
qmaxinst = 22.0
qmin = 0.0
qmax = 13.145
rmax = 60.0
rmin = 0.0
rstep = 0.01
rpoly = 1.68

[Misc]
inputdir = /Users/sst/PycharmProjects/pdf-data-reduction-tutorial/notebooks/data/chi_bkgsub_false
savedir = /Users/sst/PycharmProjects/pdf-data-reduction-tutorial/notebooks/data/processed
backgroundfilefull = /Users/sst/PycharmProjects/pdf-data-reduction-tutorial/notebooks/data/chi_bkgsub_false/C_Tatania4-0.0-average.chi

#### start data
#S 1
#L Q($\AA^{-1}$)  intensity(a.u.)
0.0219978 0.2133
0.0447806 1.17664
0.0675634 1.80298
0.0903462 0.71222
0.113129 0.853222
0.135912 0.723644
0.158695 0.680889
0.181477 1.21208
0.20426 1.56719
0.227043 3.74611
0.249826 4.07596
0.272609 5.85427
0.295391 19.4474
0.318174 33.8686
0.340957 39.0567
0.36374 46.8334
0.386523 -2.37343
0.409305 28.1519
0.432088 29.1869
0.454871 14.3487
0.477654 14.4023
0.500436 13.9136
0.523219 13.7366
0.546002 15.3162
0.568785 14.1521
0.591568 10.9599
0.61435 17.3954
0.637133 17.0152
0.659916 15.1932
0.682699 13.3652
0.705482 13.4846
0.728264 16.1998
0.751047 18.8561
0.77383 20.003
0.796613 20.006
0.819396 20.5834
0.842178 20.6189
0.864961 20.1681
0.887744 20.5822
0.910527 21.3419
0.93331 21.7983
0.956092 21.541
0.978875 21.5763
1.00166 21.7387
1.02444 21.7204
1.04722 21.604
1.07001 21.3788
1.09279 21.9276
1.11557 22.4262
1.13835 22.9118
1.16114 23.34
1.18392 24.2905
1.2067 24.8754
1.22949 26.1296
1.25227 26.9722
1.27505 27.6886
1.29783 28.4392
1.32062 28.772
1.3434 30.2825
1.36618 31.7288
1.38897 32.1164
1.41175 32.6279
1.43453 32.9402
1.45731 32.5698
1.4801 32.4986
1.50288 33.6039
1.52566 35.4314
1.54844 35.9411
1.57123 35.8833
1.59401 36.5968
1.61679 37.6965
1.63958 38.1547
1.66236 39.1614
1.68514 40.9102
1.70792 43.5591
1.73071 47.2276
1.75349 50.8894
1.77627 52.9357
1.79906 51.626
1.82184 47.4139
1.84462 41.4035
1.8674 36.8466
1.89019 33.6316
1.91297 30.9193
1.93575 28.6639
1.95854 27.2884
1.98132 26.2273
2.0041 25.0912
2.02688 24.06
2.04967 23.6634
2.07245 24.0961
2.09523 24.5683
2.11801 24.9627
2.1408 27.2613
2.16358 21.5794
2.18636 16.263
2.20915 15.544
2.23193 16.8531
2.25471 17.6946
2.27749 17.6856
2.30028 17.2635
2.32306 16.5057
2.34584 15.7383
2.36863 15.587
2.39141 15.6713
2.41419 15.7604
2.43697 16.4893
2.45976 16.1605
2.48254 13.6694
2.50532 10.4878
2.52811 9.48412
2.55089 10.7336
2.57367 12.4335
2.59645 13.776
2.61924 14.9207
2.64202 15.308
2.6648 14.4442
2.68758 13.2992
2.71037 12.4141
2.73315 11.7285
2.75593 11.1321
2.77872 10.4375
2.8015 10.2855
2.82428 10.7605
2.84706 12.08
2.86985 11.1095
2.89263 10.2883
2.91541 9.13967
2.9382 9.0009
2.96098 8.87946
2.98376 8.44063
3.00654 7.5833
3.02933 7.00607
3.05211 6.91761
3.07489 7.57025
3.09767 8.54673
3.12046 9.55321
3.14324 9.92132
3.16602 9.66791
3.18881 9.38777
3.21159 10.0119
3.23437 11.0785
3.25715 12.7011
3.27994 14.6649
3.30272 15.6086
3.3255 15.2012
3.34829 13.0757
3.37107 11.3217
3.39385 10.1855
3.41663 10.0511
3.43942 10.575
3.4622 11.6727
3.48498 12.5133
3.50777 11.2732
3.53055 8.62526
3.55333 6.71379
3.57611 7.41807
3.5989 9.27201
3.62168 11.0267
3.64446 12.309
3.66724 13.1856
3.69003 14.4378
3.71281 15.3046
3.73559 15.5278
3.75838 15.1365
3.78116 14.5294
3.80394 13.644
3.82672 12.7557
3.84951 12.0861
3.87229 11.4537
3.89507 11.4069
3.91786 11.1284
3.94064 10.8902
3.96342 10.6151
3.9862 10.8118
4.00899 11.0017
4.03177 11.9462
4.05455 13.1733
4.07733 13.917
4.10012 14.8383
4.1229 14.1719
4.14568 12.3036
4.16847 11.3767
4.19125 11.6747
4.21403 12.6471
4.23681 12.6139
4.2596 12.2953
4.28238 12.3301
4.30516 11.9967
4.32795 11.3546
4.35073 10.3518
4.37351 9.68004
4.39629 9.35662
4.41908 9.28902
4.44186 9.2594
4.46464 9.2341
4.48743 9.63278
4.51021 9.20737
4.53299 8.92989
4.55577 9.15254
4.57856 9.74298
4.60134 10.2401
4.62412 10.443
4.6469 10.0737
4.66969 9.87498
4.69247 9.60923
4.71525 8.69503
4.73804 8.02696
4.76082 7.4189
4.7836 7.21671
4.80638 7.18932
4.82917 7.86038
4.85195 8.02212
4.87473 8.05689
4.89752 8.27194
4.9203 8.50889
4.94308 8.7053
4.96586 8.57127
4.98865 8.39325
5.01143 8.0824
5.03421 7.59157
5.057 7.44596
5.07978 7.50557
5.10256 6.65841
5.12534 6.41623
5.14813 6.16955
5.17091 6.01434
5.19369 6.07532
5.21647 5.93109
5.23926 5.69096
5.26204 6.34918
5.28482 6.44781
5.30761 6.39572
5.33039 6.70572
5.35317 7.11179
5.37595 7.14032
5.39874 6.91153
5.42152 6.32401
5.4443 5.47323
5.46709 4.63991
5.48987 4.28798
5.51265 4.19527
5.53543 4.30337
5.55822 3.96658
5.581 3.41235
5.60378 3.02954
5.62656 3.03366
5.64935 3.52832
5.67213 3.64366
5.69491 3.76139
5.7177 3.85916
5.74048 3.78502
5.76326 3.41374
5.78604 3.0882
5.80883 2.68361
5.83161 2.96122
5.85439 3.18898
5.87718 3.78247
5.89996 4.35132
5.92274 4.85936
5.94552 4.75377
5.96831 5.04739
5.99109 5.49167
6.01387 5.33687
6.03666 4.95633
6.05944 4.84382
6.08222 4.5907
6.105 4.52156
6.12779 4.3532
6.15057 4.25351
6.17335 4.30391
6.19613 4.05282
6.21892 3.93197
6.2417 4.36741
6.26448 4.22049
6.28727 3.9546
6.31005 3.96664
6.33283 4.01593
6.35561 3.9038
6.3784 3.74659
6.40118 3.94023
6.42396 3.9591
6.44675 3.8771
6.46953 3.83781
6.49231 3.55846
6.51509 3.47239
6.53788 3.69979
6.56066 3.60112
6.58344 3.69576
6.60622 4.10861
6.62901 4.29152
6.65179 4.48522
6.67457 4.28453
6.69736 3.9547
6.72014 3.73476
6.74292 3.62292
6.7657 3.65603
6.78849 3.8286
6.81127 4.17422
6.83405 4.38918
6.85684 4.20847
6.87962 3.90432
6.9024 3.72483
6.92518 3.634
6.94797 3.90801
6.97075 4.15485
6.99353 4.36773
7.01632 4.4271
7.0391 4.21205
7.06188 3.93694
7.08466 3.91971
7.10745 3.94755
7.13023 3.84787
7.15301 3.92457
7.17579 3.79389
7.19858 3.70117
7.22136 3.45681
7.24414 3.38335
7.26693 3.40264
7.28971 3.492
7.31249 3.55466
7.33527 3.7192
7.35806 3.62538
7.38084 3.64442
7.40362 3.86776
7.42641 3.94306
7.44919 3.85099
7.47197 4.0215
7.49475 3.97256
7.51754 3.82693
7.54032 3.76399
7.5631 3.77549
7.58589 3.62081
7.60867 3.57165
7.63145 3.50802
7.65423 3.53456
7.67702 3.53781
7.6998 3.54854
7.72258 3.55633
7.74536 3.59521
7.76815 3.88619
7.79093 4.27309
7.81371 4.26003
7.8365 3.85224
7.85928 3.8124
7.88206 3.79667
7.90484 3.6611
7.92763 3.53323
7.95041 3.58009
7.97319 3.66705
7.99598 3.37717
8.01876 3.21652
8.04154 3.16688
8.06432 2.98545
8.08711 2.9302
8.10989 3.00271
8.13267 3.11387
8.15545 2.90115
8.17824 2.92128
8.20102 3.10413
8.2238 3.15992
8.24659 3.09202
8.26937 3.12155
8.29215 3.25292
8.31493 3.39875
8.33772 3.40626
8.3605 3.69475
8.38328 3.7685
8.40607 3.58005
8.42885 3.59049
8.45163 3.46474
8.47441 3.23454
8.4972 3.05809
8.51998 2.98635
8.54276 2.97667
8.56555 2.93269
8.58833 2.76599
8.61111 2.78336
8.63389 2.69219
8.65668 2.75996
8.67946 2.79416
8.70224 2.67003
8.72502 2.46044
8.74781 2.53506
8.77059 2.54325
8.79337 2.44192
8.81616 2.47244
8.83894 2.53751
8.86172 2.72633
8.8845 2.70459
8.90729 2.63878
8.93007 2.76096
8.95285 2.76413
8.97564 2.79382
8.99842 2.70846
9.0212 2.54436
9.04398 2.44872
9.06677 2.55872
9.08955 2.5983
9.11233 2.42059
9.13511 2.24602
9.1579 2.15774
9.18068 2.18219
9.20346 2.05131
9.22625 2.05329
9.24903 2.11496
9.27181 2.12896
9.29459 2.04605
9.31738 2.17794
9.34016 2.31802
9.36294 2.46794
9.38573 2.50813
9.40851 2.4561
9.43129 2.39974
9.45407 2.33722
9.47686 2.36962
9.49964 2.24265
9.52242 2.21359
9.54521 2.1657
9.56799 2.12673
9.59077 2.07597
9.61355 2.21044
9.63634 2.18144
9.65912 2.14334
9.6819 2.10639
9.70468 2.12122
9.72747 2.22273
9.75025 2.2492
9.77303 2.16052
9.79582 2.21084
9.8186 2.03424
9.84138 1.99021
9.86416 2.04089
9.88695 2.05541
9.90973 2.13782
9.93251 2.16674
9.9553 2.14521
9.97808 2.10878
10.0009 2.10452
10.0236 2.14841
10.0464 2.29489
10.0692 2.34439
10.092 2.31443
10.1148 2.22148
10.1376 2.14696
10.1603 2.12193
10.1831 2.11225
10.2059 2.07819
10.2287 2.12552
10.2515 2.08671
10.2743 2.01846
10.297 2.00593
10.3198 2.08061
10.3426 2.13783
10.3654 2.1876
10.3882 2.1248
10.411 2.19735
10.4337 2.18411
10.4565 2.16479
10.4793 2.0979
10.5021 2.15965
10.5249 2.20348
10.5476 2.22491
10.5704 2.28886
10.5932 2.28254
10.616 2.24422
10.6388 2.33876
10.6616 2.36573
10.6843 2.35049
10.7071 2.27429
10.7299 2.2197
10.7527 2.25485
10.7755 2.28579
10.7983 2.32613
10.821 2.26676
10.8438 2.29473
10.8666 2.28931
10.8894 2.18802
10.9122 2.1655
10.935 2.09072
10.9577 2.01841
10.9805 2.07547
11.0033 2.15787
11.0261 2.25363
11.0489 2.15527
11.0717 2.14354
11.0944 2.26326
11.1172 2.19208
11.14 2.27758
11.1628 2.32004
11.1856 2.27434
11.2083 2.20764
11.2311 2.19976
11.2539 2.17473
11.2767 2.08
11.2995 2.07609
11.3223 1.98977
11.345 1.9471
11.3678 1.85087
11.3906 1.93981
11.4134 2.14893
11.4362 2.19499
11.459 2.19861
11.4817 2.07321
11.5045 1.95214
11.5273 2.10985
11.5501 2.1472
11.5729 2.10119
11.5957 2.02246
11.6184 2.05313
11.6412 2.15338
11.664 2.23629
11.6868 2.2329
11.7096 2.24907
11.7324 2.29076
11.7551 2.33946
11.7779 2.25548
11.8007 2.07473
11.8235 2.0543
11.8463 2.10756
11.8691 2.14246
11.8918 2.17483
11.9146 2.07273
11.9374 2.02795
11.9602 2.08943
11.983 2.07769
12.0057 2.1159
12.0285 2.10416
12.0513 2.02965
12.0741 1.91103
12.0969 1.98637
12.1197 1.95785
12.1424 1.95079
12.1652 1.8653
12.188 1.90482
12.2108 1.89199
12.2336 1.9557
12.2564 1.95328
12.2791 1.92773
12.3019 1.99964
12.3247 2.02165
12.3475 2.10809
12.3703 2.09704
12.3931 1.96972
12.4158 1.91649
12.4386 1.81281
12.4614 1.81103
12.4842 1.9434
12.507 1.94051
12.5298 1.99885
12.5525 1.91108
12.5753 1.85383
12.5981 1.86289
12.6209 1.82389
12.6437 1.78825
12.6664 1.72949
12.6892 1.68207
12.712 1.52865
12.7348 1.57808
12.7576 1.67297
12.7804 1.59829
12.8031 1.70113
12.8259 1.6622
12.8487 1.56384
12.8715 1.6127
12.8943 1.68048
12.9171 1.66563
12.9398 1.69496
12.9626 1.68584
12.9854 1.61451
13.0082 1.58832
13.031 1.54429
13.0538 1.51978
13.0765 1.58089
13.0993 1.68604
13.1221 1.70663
13.1449 1.77591
13.1677 1.70477
13.1905 1.65666
13.2132 1.68036
13.236 1.70832
13.2588 1.78493
13.2816 1.6501
13.3044 1.65348
13.3271 1.7066
13.3499 1.68475
13.3727 1.60263
13.3955 1.6846
13.4183 1.67314
13.4411 1.63822
13.4638 1.59387
13.4866 1.5613
13.5094 1.50911
13.5322 1.47963
13.555 1.50542
13.5778 1.46469
13.6005 1.51701
13.6233 1.61688
13.6461 1.58387
13.6689 1.5283
13.6917 1.60001
13.7145 1.6522
13.7372 1.57526
13.76 1.5249
13.7828 1.53569
13.8056 1.5084
13.8284 1.47825
13.8512 1.48351
13.8739 1.40817
13.8967 1.48803
13.9195 1.58008
13.9423 1.6128
13.9651 1.57137
13.9878 1.55143
14.0106 1.61224
14.0334 1.66318
14.0562 1.60314
14.079 1.49638
14.1018 1.47482
14.1245 1.51176
14.1473 1.60123
14.1701 1.51934
14.1929 1.59387
14.2157 1.62156
14.2385 1.53136
14.2612 1.38728
14.284 1.39928
14.3068 1.5443
14.3296 1.62696
14.3524 1.57979
14.3752 1.5558
14.3979 1.48678
14.4207 1.47444
14.4435 1.58882
14.4663 1.55018
14.4891 1.47578
14.5119 1.42619
14.5346 1.39733
14.5574 1.46043
14.5802 1.42571
14.603 1.45324
14.6258 1.46
14.6486 1.38177
14.6713 1.44297
14.6941 1.4129
14.7169 1.41175
14.7397 1.48453
14.7625 1.42196
14.7852 1.47317
14.808 1.54575
14.8308 1.59551
14.8536 1.4905
14.8764 1.42028
14.8992 1.4263
14.9219 1.48096
14.9447 1.43069
14.9675 1.4255
14.9903 1.43604
15.0131 1.41165
15.0359 1.39817
15.0586 1.35358
15.0814 1.42053
15.1042 1.41177
15.127 1.49544
15.1498 1.49886
15.1726 1.41683
15.1953 1.42734
15.2181 1.39306
15.2409 1.33832
15.2637 1.32362
15.2865 1.3782
15.3093 1.35111
15.332 1.30544
15.3548 1.2604
15.3776 1.32386
15.4004 1.27992
15.4232 1.33528
15.4459 1.2946
15.4687 1.1762
15.4915 1.1504
15.5143 1.24395
15.5371 1.38888
15.5599 1.41507
15.5826 1.28698
15.6054 1.22846
15.6282 1.26887
15.651 1.29962
15.6738 1.32933
15.6966 1.28589
15.7193 1.25621
15.7421 1.23101
15.7649 1.26042
15.7877 1.24362
15.8105 1.22031
15.8333 1.20371
15.856 1.16609
15.8788 1.16862
15.9016 1.27359
15.9244 1.2902
15.9472 1.35522
15.97 1.27386
15.9927 1.19335
16.0155 1.19957
16.0383 1.2179
16.0611 1.22846
16.0839 1.26478
16.1066 1.33798
16.1294 1.26178
16.1522 1.20047
16.175 1.18192
16.1978 1.12211
16.2206 1.19084
16.2433 1.27839
16.2661 1.34338
16.2889 1.39048
16.3117 1.33194
16.3345 1.21128
16.3573 1.18003
16.38 1.18392
16.4028 1.20837
16.4256 1.15612
16.4484 1.12147
16.4712 1.1321
16.494 1.08613
16.5167 1.14764
16.5395 1.12547
16.5623 1.18954
16.5851 1.18844
16.6079 1.20375
16.6307 1.21879
16.6534 1.19893
16.6762 1.15226
16.699 1.16338
16.7218 1.1742
16.7446 1.18256
16.7674 1.16044
16.7901 1.17912
16.8129 1.18422
16.8357 1.16919
16.8585 1.2192
16.8813 1.19705
16.904 1.15486
16.9268 1.06824
16.9496 1.00897
16.9724 0.993408
16.9952 1.01211
17.018 1.0237
17.0407 1.03663
17.0635 1.09708
17.0863 1.04753
17.1091 1.06183
17.1319 1.13545
17.1547 1.14672
17.1774 1.02207
17.2002 0.963643
17.223 1.0485
17.2458 1.039
17.2686 1.01275
17.2914 1.06138
17.3141 1.12139
17.3369 1.117
17.3597 1.07766
17.3825 0.977602
17.4053 1.02397
17.4281 1.07007
17.4508 1.10132
17.4736 1.09754
17.4964 1.08484
17.5192 1.0869
17.542 1.05241
17.5647 1.06577
17.5875 1.05393
17.6103 1.10366
17.6331 1.05022
17.6559 1.04579
17.6787 1.0064
17.7014 1.02785
17.7242 0.99548
17.747 0.993835
17.7698 0.991007
17.7926 0.96995
17.8154 1.01024
17.8381 1.05517
17.8609 1.05574
17.8837 1.12054
17.9065 1.07497
17.9293 1.09954
17.9521 1.03733
17.9748 1.02917
17.9976 1.03068
18.0204 0.982678
18.0432 1.11288
18.066 1.08375
18.0888 1.0316
18.1115 1.08153
18.1343 1.06106
18.1571 1.00238
18.1799 1.07502
18.2027 1.12429
18.2254 1.08481
18.2482 1.00151
18.271 0.967368
18.2938 0.945373
18.3166 0.981706
18.3394 0.964144
18.3621 0.973082
18.3849 1.02383
18.4077 1.03785
18.4305 0.99835
18.4533 0.993534
18.4761 1.01061
18.4988 0.961742
18.5216 0.958815
18.5444 0.96563
18.5672 0.948645
18.59 0.958452
18.6128 1.01118
18.6355 1.00138
18.6583 1.025
18.6811 0.994484
18.7039 1.00346
18.7267 0.938492
18.7495 1.03086
18.7722 1.00553
18.795 0.953184
18.8178 0.97055
18.8406 0.934345
18.8634 0.941638
18.8862 0.88382
18.9089 0.957536
18.9317 1.05559
18.9545 1.01233
18.9773 0.943346
19.0001 0.981496
19.0228 0.980454
19.0456 0.956568
19.0684 0.936029
19.0912 0.91692
19.114 0.913391
19.1368 0.921546
19.1595 0.877064
19.1823 0.918779
19.2051 0.901602
19.2279 0.915213
19.2507 0.920997
19.2735 0.972266
19.2962 0.946482
19.319 0.970183
19.3418 0.89117
19.3646 0.917266
19.3874 0.833351
19.4102 0.838351
19.4329 0.852515
19.4557 0.861495
19.4785 0.827843
19.5013 0.821928
19.5241 0.842688
19.5469 0.830639
19.5696 0.824275
19.5924 0.832282
19.6152 0.760896
19.638 0.805482
19.6608 0.814588
19.6835 0.895677
19.7063 0.878807
19.7291 0.81528
19.7519 0.791248
19.7747 0.815922
19.7975 0.822711
19.8202 0.794941
19.843 0.734423
19.8658 0.709008
19.8886 0.736869
19.9114 0.765031
19.9342 0.759457
19.9569 0.795279
19.9797 0.799305
20.0025 0.87738
20.0253 0.855369
20.0481 0.812209
20.0709 0.783616
20.0936 0.761564
20.1164 0.777374
20.1392 0.813958
20.162 0.78874
20.1848 0.76756
20.2076 0.728268
20.2303 0.762562
20.2531 0.760497
20.2759 0.766413
20.2987 0.799141
20.3215 0.834493
20.3442 0.828964
20.367 0.761305
20.3898 0.72291
20.4126 0.757899
20.4354 0.802299
20.4582 0.776496
20.4809 0.701417
20.5037 0.726146
20.5265 0.726943
20.5493 0.785772
20.5721 0.800234
20.5949 0.728959
20.6176 0.645165
20.6404 0.681359
20.6632 0.701198
20.686 0.768716
20.7088 0.726265
20.7316 0.719546
20.7543 0.702993
20.7771 0.685383
20.7999 0.700578
20.8227 0.653411
20.8455 0.708853
20.8683 0.700461
20.891 0.750067
20.9138 0.698549
20.9366 0.702316
20.9594 0.699893
20.9822 0.696943
21.0049 0.676712
21.0277 0.664357
21.0505 0.598071
21.0733 0.640962
21.0961 0.663887
21.1189 0.636275
21.1416 0.614304
21.1644 0.639189
21.1872 0.621559
21.21 0.627505
21.2328 0.596466
21.2556 0.661229
21.2783 0.67375
21.3011 0.640525
21.3239 0.67597
21.3467 0.640202
21.3695 0.605415
21.3923 0.644718
21.415 0.651196
21.4378 0.6521
21.4606 0.654159
21.4834 0.675315
21.5062 0.612425
21.529 0.566245
21.5517 0.613151
21.5745 0.620507
21.5973 0.603863
21.6201 0.555008
21.6429 0.524226
21.6657 0.591341
21.6884 0.607083
21.7112 0.63801
21.734 0.68942
21.7568 0.625071
21.7796 0.50793
21.8023 0.570888
21.8251 0.559017
21.8479 0.580222
21.8707 0.613474
21.8935 0.62612
21.9163 0.590756
21.939 0.648304
21.9618 0.599252
21.9846 0.56411
