[DEFAULT]

version = diffpy.pdfgetx-2.1.0

# input and output specifications
dataformat = QA
backgroundfile =
outputtype = iq

# PDF calculation setup
mode = xray
composition = Ni
bgscale = 1
rpoly = 2
qmaxinst = 25
qmin = 0
qmax = 24
rmin = 2
rmax = 60
rstep = 0.01

# End of config --------------------------------------------------------------

#### start data
#S 1
#L Q(Ã…$^{-1}$)  intensity(a.u.)
0 6.02933
0.0227327 6.02933
0.0454655 5.68357
0.0681982 5.35485
0.0909309 4.8992
0.113664 4.64731
0.136396 4.73568
0.159129 4.95278
0.181862 5.39865
0.204595 5.77119
0.227327 6.13054
0.25006 7.05734
0.272793 9.71388
0.295525 17.7382
0.318258 35.3859
0.340991 68.1534
0.363724 75.7882
0.386456 51.7567
0.409189 38.237
0.431922 31.6764
0.454655 28.7765
0.477387 30.4658
0.50012 32.5857
0.522853 34.431
0.545585 36.4135
0.568318 38.6773
0.591051 41.5132
0.613784 45.6674
0.636516 50.4178
0.659249 55.0976
0.681982 59.4431
0.704714 62.8019
0.727447 65.4181
0.75018 67.6097
0.772913 69.295
0.795645 70.1398
0.818378 70.1123
0.841111 70.0415
0.863844 70.1451
0.886576 70.5967
0.909309 71.589
0.932042 73.1888
0.954774 75.0327
0.977507 77.0087
1.00024 78.9161
1.02297 80.4741
1.04571 81.2293
1.06844 81.5147
1.09117 81.7675
1.1139 82.13
1.13664 82.684
1.15937 83.1988
1.1821 83.5493
1.20483 83.7977
1.22757 84.1506
1.2503 84.5945
1.27303 85.1504
1.29577 85.7078
1.3185 86.2153
1.34123 86.5044
1.36396 86.5183
1.3867 86.0848
1.40943 85.472
1.43216 84.6837
1.45489 83.695
1.47763 82.5388
1.50036 80.9125
1.52309 79.0627
1.54583 76.9604
1.56856 74.6078
1.59129 72.083
1.61402 69.3843
1.63676 66.8815
1.65949 64.6482
1.68222 62.5873
1.70495 60.8612
1.72769 59.6937
1.75042 58.6567
1.77315 57.8118
1.79589 57.156
1.81862 56.384
1.84135 55.4536
1.86408 54.4204
1.88682 53.2327
1.90955 52.0646
1.93228 50.9204
1.95501 49.6816
1.97775 48.5106
2.00048 47.3696
2.02321 46.172
2.04595 45.0362
2.06868 44.0214
2.09141 43.1866
2.11414 42.4261
2.13688 41.8576
2.15961 41.3338
2.18234 40.7267
2.20507 40.0499
2.22781 39.4159
2.25054 38.7833
2.27327 38.3099
2.29601 37.8836
2.31874 37.5149
2.34147 37.2027
2.3642 36.9014
2.38694 36.5998
2.40967 36.3905
2.4324 36.2652
2.45513 36.1955
2.47787 36.1994
2.5006 36.1799
2.52333 36.1453
2.54607 36.1965
2.5688 36.2388
2.59153 36.2323
2.61426 36.2683
2.637 36.3865
2.65973 36.573
2.68246 36.7657
2.70519 36.9005
2.72793 37.0313
2.75066 37.2472
2.77339 37.36
2.79613 37.6016
2.81886 38.0297
2.84159 38.4298
2.86432 39.0824
2.88706 40.039
2.90979 41.4874
2.93252 44.0467
2.95525 49.4117
2.97799 62.2802
3.00072 97.3192
3.02345 195.613
3.04619 425.076
3.06892 681.625
3.09165 768.965
3.11438 601.138
3.13712 336.961
3.15985 158.165
3.18258 82.8031
3.20531 56.6277
3.22805 46.6323
3.25078 41.9526
3.27351 39.3902
3.29625 37.7533
3.31898 36.6427
3.34171 35.9383
3.36444 35.568
3.38718 35.5915
3.40991 36.2781
3.43264 38.3213
3.45537 44.3234
3.47811 59.8282
3.50084 106.785
3.52357 211.819
3.54631 333.796
3.56904 379.624
3.59177 302.129
3.6145 175.436
3.63724 88.5312
3.65997 51.385
3.6827 38.1985
3.70543 32.9264
3.72817 30.5243
3.7509 29.2904
3.77363 28.5839
3.79637 28.0056
3.8191 27.4418
3.84183 27.0093
3.86456 26.6065
3.8873 26.2648
3.91003 25.9978
3.93276 25.7479
3.95549 25.5395
3.97823 25.3103
4.00096 25.11
4.02369 24.8542
4.04643 24.6585
4.06916 24.5472
4.09189 24.4464
4.11462 24.3438
4.13736 24.2316
4.16009 24.1237
4.18282 24.0423
4.20555 24.0144
4.22829 23.9323
4.25102 23.8326
4.27375 23.7407
4.29649 23.7225
4.31922 23.6834
4.34195 23.5993
4.36468 23.5914
4.38742 23.5086
4.41015 23.4845
4.43288 23.4647
4.45561 23.4449
4.47835 23.4317
4.50108 23.5022
4.52381 23.5934
4.54655 23.5974
4.56928 23.5996
4.59201 23.6321
4.61474 23.686
4.63748 23.8009
4.66021 23.9134
4.68294 23.9846
4.70567 24.0992
4.72841 24.2962
4.75114 24.4854
4.77387 24.6551
4.7966 24.8869
4.81934 25.2075
4.84207 25.5594
4.8648 26.1334
4.88754 27.1047
4.91027 29.0279
4.933 33.3185
4.95573 44.6869
4.97847 77.3954
5.0012 149.262
5.02393 233.672
5.04666 253.716
5.0694 194.805
5.09213 112.465
5.11486 60.3681
5.1376 39.4764
5.16033 32.2377
5.18306 29.3398
5.20579 28.0431
5.22853 27.3928
5.25126 26.9427
5.27399 26.6564
5.29672 26.4488
5.31946 26.2956
5.34219 26.2134
5.36492 26.1307
5.38766 26.0189
5.41039 25.9699
5.43312 25.9167
5.45585 25.8472
5.47859 25.7986
5.50132 25.8073
5.52405 25.8163
5.54678 25.8761
5.56952 25.9861
5.59225 26.0377
5.61498 26.1307
5.63772 26.2927
5.66045 26.526
5.68318 26.7965
5.70591 27.129
5.72865 27.539
5.75138 28.29
5.77411 29.805
5.79684 33.0203
5.81958 41.1716
5.84231 64.991
5.86504 122.116
5.88778 210.427
5.91051 263.134
5.93324 227.707
5.95597 139.488
5.97871 73.477
6.00144 44.4129
6.02417 34.1061
6.0469 30.6092
6.06964 30.1608
6.09237 32.8202
6.1151 42.1888
6.13784 60.8409
6.16057 82.4896
6.1833 87.0382
6.20603 68.9976
6.22877 46.4946
6.2515 32.8736
6.27423 27.3324
6.29696 25.2316
6.3197 24.3362
6.34243 23.867
6.36516 23.4598
6.3879 23.1137
6.41063 22.8678
6.43336 22.657
6.45609 22.5167
6.47883 22.3448
6.50156 22.1669
6.52429 22.0206
6.54702 21.9019
6.56976 21.8141
6.59249 21.7593
6.61522 21.6493
6.63796 21.5559
6.66069 21.4435
6.68342 21.3435
6.70615 21.2767
6.72889 21.2116
6.75162 21.1447
6.77435 21.0614
6.79708 21.0185
6.81982 20.9712
6.84255 20.9267
6.86528 20.9587
6.88802 20.9601
6.91075 20.9237
6.93348 20.9167
6.95621 20.983
6.97895 21.0808
7.00168 21.285
7.02441 21.7136
7.04714 23.0691
7.06988 26.7981
7.09261 34.3258
7.11534 43.2856
7.13808 45.022
7.16081 37.9621
7.18354 29.1559
7.20627 24.0926
7.22901 22.1418
7.25174 21.4126
7.27447 21.1187
7.2972 20.9813
7.31994 20.9688
7.34267 21.0072
7.3654 20.997
7.38814 21.0635
7.41087 21.1244
7.4336 21.1282
7.45633 21.1726
7.47907 21.2723
7.5018 21.3981
7.52453 21.5158
7.54726 21.6254
7.57 21.8199
7.59273 22.1536
7.61546 22.5912
7.6382 23.2611
7.66093 24.612
7.68366 28.0931
7.70639 37.6302
7.72913 58.9776
7.75186 88.7556
7.77459 99.2014
7.79732 79.7204
7.82006 51.4346
7.84279 34.927
7.86552 29.4424
7.88826 30.2502
7.91099 38.3477
7.93372 57.6315
7.95645 81.9128
7.97919 87.8045
8.00192 68.6649
8.02465 44.2015
8.04738 30.6529
8.07012 25.5172
8.09285 23.5342
8.11558 22.6521
8.13832 22.2241
8.16105 21.9332
8.18378 21.7831
8.20651 21.6855
8.22925 21.5713
8.25198 21.4559
8.27471 21.3216
8.29744 21.2478
8.32018 21.2365
8.34291 21.2353
8.36564 21.1632
8.38838 21.1509
8.41111 21.1282
8.43384 21.1045
8.45657 21.1466
8.47931 21.162
8.50204 21.197
8.52477 21.3196
8.5475 21.3841
8.57024 21.5139
8.59297 21.8009
8.6157 22.4016
8.63844 23.8176
8.66117 27.7834
8.6839 37.7605
8.70663 54.6357
8.72937 66.4584
8.7521 59.4352
8.77483 42.4252
8.79756 29.92
8.8203 24.5534
8.84303 22.6304
8.86576 21.8451
8.8885 21.4648
8.91123 21.2445
8.93396 21.0938
8.95669 21.0299
8.97943 20.9894
9.00216 20.9021
9.02489 20.8259
9.04762 20.8751
9.07036 20.9417
9.09309 20.9702
9.11582 21.1576
9.13856 21.6382
9.16129 22.6352
9.18402 25.4126
9.20675 33.079
9.22949 47.9969
9.25222 62.8401
9.27495 61.4378
9.29768 45.8586
9.32042 31.4833
9.34315 24.5156
9.36588 21.9624
9.38862 20.9524
9.41135 20.4592
9.43408 20.2099
9.45681 20.0631
9.47955 19.9295
9.50228 19.8568
9.52501 19.7697
9.54774 19.6734
9.57048 19.5612
9.59321 19.4845
9.61594 19.4172
9.63868 19.4071
9.66141 19.4139
9.68414 19.4095
9.70687 19.3847
9.72961 19.3491
9.75234 19.2946
9.77507 19.2794
9.7978 19.2776
9.82054 19.2987
9.84327 19.3255
9.866 19.3185
9.88874 19.3731
9.91147 19.4452
9.9342 19.5229
9.95693 19.639
9.97967 19.8748
10.0024 20.5151
10.0251 22.2527
10.0479 25.6677
10.0706 29.3057
10.0933 29.5345
10.1161 26.0173
10.1388 22.5801
10.1615 20.871
10.1843 20.208
10.207 20.0101
10.2297 19.9664
10.2525 19.9339
10.2752 19.9393
10.2979 19.9839
10.3207 20.0224
10.3434 20.1043
10.3661 20.2453
10.3889 20.4333
10.4116 20.7841
10.4343 21.4598
10.4571 23.0804
10.4798 27.5139
10.5025 37.7211
10.5253 52.1479
10.548 58.2772
10.5707 48.2983
10.5934 34.7315
10.6162 27.9327
10.6389 28.3183
10.6616 34.1443
10.6844 40.7292
10.7071 39.7791
10.7298 32.0142
10.7526 25.2138
10.7753 22.0115
10.798 20.8116
10.8208 20.3133
10.8435 20.0501
10.8662 19.8303
10.889 19.6967
10.9117 19.5581
10.9344 19.4758
10.9572 19.4055
10.9799 19.3314
11.0026 19.2625
11.0254 19.2399
11.0481 19.221
11.0708 19.1803
11.0936 19.1607
11.1163 19.1482
11.139 19.1999
11.1618 19.3717
11.1845 19.9158
11.2072 21.4402
11.23 24.8997
11.2527 29.7171
11.2754 31.392
11.2982 27.8653
11.3209 23.1874
11.3436 20.4588
11.3664 19.3749
11.3891 18.9661
11.4118 18.8057
11.4346 18.7053
11.4573 18.631
11.48 18.6182
11.5028 18.6405
11.5255 18.6864
11.5482 18.7611
11.571 18.8845
11.5937 19.2396
11.6164 20.2729
11.6392 22.8167
11.6619 27.0257
11.6846 29.6547
11.7074 27.717
11.7301 23.8734
11.7528 22.0216
11.7756 23.126
11.7983 26.217
11.821 28.0467
11.8437 25.9677
11.8665 22.3189
11.8892 19.9077
11.9119 18.8369
11.9347 18.3838
11.9574 18.1919
11.9801 18.0984
12.0029 18.0145
12.0256 17.9816
12.0483 17.9367
12.0711 17.8949
12.0938 17.8649
12.1165 17.8197
12.1393 17.75
12.162 17.7816
12.1847 17.8068
12.2075 17.7916
12.2302 17.8345
12.2529 17.9456
12.2757 18.1882
12.2984 18.747
12.3211 19.6916
12.3439 20.3282
12.3666 19.8951
12.3893 18.9108
12.4121 18.2295
12.4348 17.9409
12.4575 17.8578
12.4803 17.8233
12.503 17.8277
12.5257 17.9075
12.5485 17.9592
12.5712 18.028
12.5939 18.1522
12.6167 18.4325
12.6394 19.1484
12.6621 20.9921
12.6849 24.9729
12.7076 30.26
12.7303 32.1681
12.7531 28.4499
12.7758 23.8379
12.7985 22.2495
12.8213 23.482
12.844 24.9732
12.8667 24.0302
12.8895 21.4259
12.9122 19.4099
12.9349 18.5146
12.9577 18.1898
12.9804 18.0293
13.0031 17.928
13.0259 17.8816
13.0486 17.829
13.0713 17.7686
13.094 17.7913
13.1168 17.8165
13.1395 17.8046
13.1622 17.8155
13.185 17.8806
13.2077 18.0083
13.2304 18.2414
13.2532 18.8873
13.2759 20.6075
13.2986 23.9925
13.3214 27.7816
13.3441 28.0541
13.3668 24.4885
13.3896 20.8459
13.4123 18.9933
13.435 18.3134
13.4578 18.0498
13.4805 17.9504
13.5032 17.893
13.526 17.8553
13.5487 17.9046
13.5714 18.093
13.5942 18.6333
13.6169 20.0545
13.6396 23.4356
13.6624 28.5893
13.6851 31.3812
13.7078 28.6529
13.7306 23.4658
13.7533 19.8834
13.776 18.2935
13.7988 17.657
13.8215 17.4326
13.8442 17.3161
13.867 17.2138
13.8897 17.1284
13.9124 17.0084
13.9352 16.9638
13.9579 16.9086
13.9806 16.8408
14.0034 16.8097
14.0261 16.7622
14.0488 16.7206
14.0716 16.6704
14.0943 16.6371
14.117 16.6079
14.1398 16.5777
14.1625 16.5978
14.1852 16.6697
14.208 16.8616
14.2307 17.1347
14.2534 17.2375
14.2762 17.0789
14.2989 16.8046
14.3216 16.5854
14.3443 16.4437
14.3671 16.4359
14.3898 16.4053
14.4125 16.3959
14.4353 16.4066
14.458 16.4485
14.4807 16.5556
14.5035 16.8318
14.5262 17.3961
14.5489 18.4115
14.5717 19.4782
14.5944 19.6844
14.6171 19.2929
14.6399 19.4814
14.6626 20.8668
14.6853 22.1369
14.7081 21.5069
14.7308 19.4483
14.7535 17.684
14.7763 16.8107
14.799 16.4523
14.8217 16.307
14.8445 16.2543
14.8672 16.1897
14.8899 16.1683
14.9127 16.1696
14.9354 16.1786
14.9581 16.1481
14.9809 16.1323
15.0036 16.2015
15.0263 16.3848
15.0491 16.8455
15.0718 17.7822
15.0945 19.0232
15.1173 19.6308
15.14 18.9371
15.1627 17.6218
15.1855 16.7224
15.2082 16.2857
15.2309 16.1122
15.2537 16.0905
15.2764 16.0843
15.2991 16.1373
15.3219 16.2523
15.3446 16.6054
15.3673 17.4839
15.3901 19.0455
15.4128 20.7534
15.4355 21.088
15.4583 19.9242
15.481 18.7158
15.5037 18.2914
15.5265 18.2134
15.5492 17.7323
15.5719 16.9774
15.5946 16.3491
15.6174 15.9827
15.6401 15.832
15.6628 15.7485
15.6856 15.6796
15.7083 15.667
15.731 15.6624
15.7538 15.631
15.7765 15.5557
15.7992 15.5276
15.822 15.5809
15.8447 15.6975
15.8674 15.9155
15.8902 16.3114
15.9129 16.7973
15.9356 17.0112
15.9584 16.7077
15.9811 16.1584
16.0038 15.7658
16.0266 15.5757
16.0493 15.5306
16.072 15.5183
16.0948 15.5376
16.1175 15.6492
16.1402 15.881
16.163 16.5707
16.1857 17.8882
16.2084 19.3518
16.2312 19.9534
16.2539 19.4604
16.2766 18.7019
16.2994 18.4467
16.3221 18.4035
16.3448 17.8609
16.3676 16.8253
16.3903 15.9257
16.413 15.4663
16.4358 15.2312
16.4585 15.0793
16.4812 14.9851
16.504 14.9339
16.5267 14.8991
16.5494 14.8746
16.5722 14.8635
16.5949 14.8161
16.6176 14.8742
16.6404 15.014
16.6631 15.3295
16.6858 15.68
16.7086 15.8523
16.7313 15.686
16.754 15.283
16.7768 14.8891
16.7995 14.6771
16.8222 14.5723
16.8449 14.5707
16.8677 14.5545
16.8904 14.5968
16.9131 14.8033
16.9359 15.2529
16.9586 15.8557
16.9813 16.297
17.0041 16.2168
17.0268 15.6489
17.0495 14.9978
17.0723 14.5812
17.095 14.3453
17.1177 14.2525
17.1405 14.2343
17.1632 14.1892
17.1859 14.1565
17.2087 14.1342
17.2314 14.1069
17.2541 14.0593
17.2769 14.0395
17.2996 14.0226
17.3223 14.0696
17.3451 14.0987
17.3678 14.1738
17.3905 14.3321
17.4133 14.5777
17.436 14.7855
17.4587 14.7967
17.4815 14.6054
17.5042 14.3463
17.5269 14.1643
17.5497 14.0582
17.5724 14.0259
17.5951 14.0823
17.6179 14.1734
17.6406 14.4179
17.6633 14.9287
17.6861 15.6114
17.7088 16.1657
17.7315 16.2893
17.7543 16.0049
17.777 15.5494
17.7997 15.1591
17.8225 14.8849
17.8452 14.5459
17.8679 14.2274
17.8907 14.0054
17.9134 13.8733
17.9361 13.8098
17.9589 13.798
17.9816 13.7509
18.0043 13.7606
18.0271 13.7881
18.0498 13.8254
18.0725 13.9715
18.0952 14.3206
18.118 14.8153
18.1407 15.2085
18.1634 15.3272
18.1862 15.0811
18.2089 14.5633
18.2316 14.0808
18.2544 13.7964
18.2771 13.6716
18.2998 13.6471
18.3226 13.7069
18.3453 13.8928
18.368 14.269
18.3908 14.6986
18.4135 15.0099
18.4362 15.0858
18.459 14.9044
18.4817 14.5929
18.5044 14.2537
18.5272 13.9448
18.5499 13.6828
18.5726 13.4635
18.5954 13.2758
18.6181 13.1603
18.6408 13.1046
18.6636 13.0754
18.6863 13.0472
18.709 13.0118
18.7318 12.9708
18.7545 12.9694
18.7772 12.9225
18.8 12.8882
18.8227 12.8724
18.8454 12.8642
18.8682 12.8616
18.8909 12.8757
18.9136 12.8703
18.9364 12.8329
18.9591 12.837
18.9818 12.8555
19.0046 12.9204
19.0273 13.0811
19.05 13.3036
19.0728 13.5389
19.0955 13.7612
19.1182 13.9501
19.141 14.0241
19.1637 13.9646
19.1864 13.8196
19.2092 13.534
19.2319 13.1507
19.2546 12.8375
19.2774 12.6666
19.3001 12.5779
19.3228 12.4919
19.3455 12.4657
19.3683 12.4691
19.391 12.4898
19.4137 12.5301
19.4365 12.634
19.4592 12.7517
19.4819 12.8281
19.5047 12.847
19.5274 12.7731
19.5501 12.6077
19.5729 12.4456
19.5956 12.2962
19.6183 12.2502
19.6411 12.2434
19.6638 12.29
19.6865 12.3924
19.7093 12.4943
19.732 12.5438
19.7547 12.5417
19.7775 12.4447
19.8002 12.2882
19.8229 12.132
19.8457 12.0296
19.8684 11.9905
19.8911 11.9454
19.9139 11.8927
19.9366 11.862
19.9593 11.8274
19.9821 11.8076
20.0048 11.8032
20.0275 11.808
20.0503 11.7799
20.073 11.8163
20.0957 11.8302
20.1185 11.8374
20.1412 11.8184
20.1639 11.8056
20.1867 11.8208
20.2094 11.7997
20.2321 11.7801
20.2549 11.8049
20.2776 11.8954
20.3003 12.0645
20.3231 12.2851
20.3458 12.5101
20.3685 12.7061
20.3913 12.7934
20.414 12.7171
20.4367 12.4954
20.4595 12.2276
20.4822 12.0208
20.5049 11.8481
20.5277 11.6857
20.5504 11.5673
20.5731 11.493
20.5958 11.4498
20.6186 11.4322
20.6413 11.4324
20.664 11.4753
20.6868 11.5232
20.7095 11.6016
20.7322 11.6182
20.755 11.6115
20.7777 11.6006
20.8004 11.5369
20.8232 11.4237
20.8459 11.3368
20.8686 11.3169
20.8914 11.3203
20.9141 11.4001
20.9368 11.5147
20.9596 11.5611
20.9823 11.6224
21.005 11.6769
21.0278 11.6568
21.0505 11.5188
21.0732 11.3798
21.096 11.2914
21.1187 11.1741
21.1414 11.0523
21.1642 10.9719
21.1869 10.9086
21.2096 10.879
21.2324 10.8879
21.2551 10.8322
21.2778 10.8528
21.3006 10.8717
21.3233 10.8727
21.346 10.8549
21.3688 10.8377
21.3915 10.8506
21.4142 10.8259
21.437 10.7551
21.4597 10.6876
21.4824 10.6496
21.5052 10.7065
21.5279 10.7398
21.5506 10.7545
21.5734 10.7611
21.5961 10.7842
21.6188 10.7975
21.6416 10.7269
21.6643 10.6431
21.687 10.5393
21.7098 10.4754
21.7325 10.4288
21.7552 10.3761
21.778 10.3694
21.8007 10.3631
21.8234 10.3352
21.8461 10.3583
21.8689 10.4275
21.8916 10.4781
21.9143 10.47
21.9371 10.4516
21.9598 10.444
21.9825 10.4153
22.0053 10.3757
22.028 10.3132
22.0507 10.2809
22.0735 10.2868
22.0962 10.3279
22.1189 10.3555
22.1417 10.3455
22.1644 10.3172
22.1871 10.3012
22.2099 10.2524
22.2326 10.1396
22.2553 10.0434
22.2781 9.95855
22.3008 9.93569
22.3235 9.93479
22.3463 9.88584
22.369 9.89213
22.3917 9.84112
22.4145 9.83244
22.4372 9.83576
22.4599 9.84899
22.4827 9.82785
22.5054 9.81052
22.5281 9.7902
22.5509 9.76636
22.5736 9.75534
22.5963 9.73777
22.6191 9.7218
22.6418 9.72497
22.6645 9.72066
22.6873 9.75264
22.71 9.80713
22.7327 9.83649
22.7555 9.83471
22.7782 9.80331
22.8009 9.77823
22.8237 9.76271
22.8464 9.704
22.8691 9.62821
22.8919 9.53998
22.9146 9.49047
22.9373 9.49648
22.9601 9.49677
22.9828 9.48478
23.0055 9.47127
23.0283 9.45273
23.051 9.45593
23.0737 9.47601
23.0964 9.45933
23.1192 9.44842
23.1419 9.4157
23.1646 9.39703
23.1874 9.41869
23.2101 9.44962
23.2328 9.46049
23.2556 9.44992
23.2783 9.43935
23.301 9.44384
23.3238 9.41628
23.3465 9.35007
23.3692 9.24586
23.392 9.17948
23.4147 9.12373
23.4374 9.09485
23.4602 9.06779
23.4829 9.05728
23.5056 9.05787
23.5284 9.03533
23.5511 9.0292
23.5738 9.03944
23.5966 9.01705
23.6193 8.99423
23.642 8.97239
23.6648 8.96527
23.6875 8.98628
23.7102 8.99639
23.733 9.01618
23.7557 9.03995
23.7784 9.03778
23.8012 9.02611
23.8239 8.99197
23.8466 8.99714
23.8694 8.97703
23.8921 8.88945
23.9148 8.83037
23.9376 8.79667
23.9603 8.74508
23.983 8.69171
24.0058 8.66643
24.0285 8.65178
24.0512 8.64128
24.074 8.63211
24.0967 8.61063
24.1194 8.57383
24.1422 8.55729
24.1649 8.56376
24.1876 8.55836
24.2104 8.52329
24.2331 8.50336
24.2558 8.48015
24.2786 8.45888
24.3013 8.45387
24.324 8.44712
24.3467 8.40024
24.3695 8.34996
24.3922 8.34176
24.4149 8.31663
24.4377 8.30148
24.4604 8.28672
24.4831 8.27051
24.5059 8.23375
24.5286 8.22331
24.5513 8.20633
24.5741 8.19367
24.5968 8.18354
24.6195 8.1692
24.6423 8.17616
24.665 8.15666
24.6877 8.13493
24.7105 8.09393
24.7332 8.0845
24.7559 8.09617
24.7787 8.09602
24.8014 8.10436
24.8241 8.09703
24.8469 8.08816
24.8696 8.09025
24.8923 8.07014
24.9151 8.02644
24.9378 7.99065
24.9605 7.98157
24.9833 7.93894
