[DEFAULT]

version = diffpy.pdfgetx-2.1.0

# input and output specifications
dataformat = QA
backgroundfile =
outputtype = iq

# PDF calculation setup
mode = xray
composition = Ni
bgscale = 1
rpoly = 2
qmaxinst = 25
qmin = 0
qmax = 24
rmin = 2
rmax = 60
rstep = 0.01

# End of config --------------------------------------------------------------

#### start data
#S 1
#L Q(Ã…$^{-1}$)  intensity(a.u.)
0 6.02094
0.0229437 6.02094
0.0458873 5.67264
0.068831 5.35864
0.0917746 4.88003
0.114718 4.65312
0.137662 4.74281
0.160606 4.97196
0.183549 5.43151
0.206493 5.78554
0.229437 6.17453
0.25238 7.26164
0.275324 10.1571
0.298268 19.9548
0.321211 39.1209
0.344155 73.2644
0.367099 74.9829
0.390042 51.1192
0.412986 37.6955
0.43593 30.6611
0.458873 28.9773
0.481817 31.0065
0.504761 33.0349
0.527704 34.8111
0.550648 36.9486
0.573591 39.3174
0.596535 42.4241
0.619479 46.9964
0.642422 51.7029
0.665366 56.3162
0.68831 60.5343
0.711253 63.64
0.734197 66.1021
0.757141 68.2415
0.780084 69.6767
0.803028 70.1944
0.825972 70.064
0.848915 70.0525
0.871859 70.247
0.894803 70.9194
0.917746 72.1181
0.94069 73.9087
0.963634 75.8543
0.986577 77.7914
1.00952 79.6902
1.03246 80.8957
1.05541 81.3891
1.07835 81.6102
1.1013 81.9189
1.12424 82.3709
1.14718 82.9649
1.17013 83.4004
1.19307 83.6668
1.21601 84.0527
1.23896 84.4246
1.2619 84.8959
1.28484 85.4581
1.30779 85.9946
1.33073 86.4281
1.35368 86.5443
1.37662 86.39
1.39956 85.8793
1.42251 85.1028
1.44545 84.1047
1.46839 83.0247
1.49134 81.5319
1.51428 79.7684
1.53723 77.7195
1.56017 75.4189
1.58311 72.9626
1.60606 70.2041
1.629 67.6295
1.65194 65.2904
1.67489 63.1479
1.69783 61.2803
1.72077 59.9827
1.74372 58.9107
1.76666 57.9954
1.78961 57.3141
1.81255 56.6015
1.83549 55.6942
1.85844 54.6475
1.88138 53.4781
1.90432 52.2872
1.92727 51.1303
1.95021 49.8949
1.97315 48.697
1.9961 47.5497
2.01904 46.3339
2.04199 45.1682
2.06493 44.0997
2.08787 43.2656
2.11082 42.4935
2.13376 41.9063
2.1567 41.386
2.17965 40.7761
2.20259 40.0886
2.22554 39.4549
2.24848 38.8039
2.27142 38.3223
2.29437 37.8986
2.31731 37.5232
2.34025 37.2045
2.3632 36.8972
2.38614 36.5958
2.40908 36.3869
2.43203 36.2611
2.45497 36.1895
2.47792 36.1812
2.50086 36.1643
2.5238 36.1437
2.54675 36.2024
2.56969 36.2399
2.59263 36.2302
2.61558 36.2767
2.63852 36.4103
2.66146 36.6148
2.68441 36.8022
2.70735 36.9172
2.7303 37.0648
2.75324 37.274
2.77618 37.375
2.79913 37.6792
2.82207 38.1042
2.84501 38.5256
2.86796 39.26
2.8909 40.3085
2.91384 41.9182
2.93679 44.9403
2.95973 51.761
2.98268 68.1626
3.00562 115.359
3.02856 247.461
3.05151 499.615
3.07445 734.951
3.09739 747.158
3.12034 519.088
3.14328 262.817
3.16623 123.098
3.18917 70.2841
3.21211 51.8705
3.23506 44.5351
3.258 40.829
3.28094 38.6615
3.30389 37.2586
3.32683 36.3174
3.34977 35.7384
3.37272 35.5121
3.39566 35.7732
3.41861 36.9057
3.44155 40.1999
3.46449 49.2335
3.48744 75.977
3.51038 147.708
3.53332 276.019
3.55627 373.182
3.57921 355.588
3.60215 234.606
3.6251 121.402
3.64804 64.3127
3.67099 42.6385
3.69393 34.6978
3.71687 31.3277
3.73982 29.7166
3.76276 28.8249
3.7857 28.253
3.80865 27.6438
3.83159 27.1716
3.85453 26.7506
3.87748 26.3805
3.90042 26.0888
3.92337 25.8409
3.94631 25.612
3.96925 25.3988
3.9922 25.179
4.01514 24.9491
4.03808 24.7134
4.06103 24.582
4.08397 24.4661
4.10692 24.3818
4.12986 24.2595
4.1528 24.1598
4.17575 24.0562
4.19869 24.0284
4.22163 23.9558
4.24458 23.8512
4.26752 23.7585
4.29046 23.7201
4.31341 23.701
4.33635 23.6068
4.3593 23.5966
4.38224 23.513
4.40518 23.4852
4.42813 23.4661
4.45107 23.4417
4.47401 23.4258
4.49696 23.4863
4.5199 23.5897
4.54284 23.6028
4.56579 23.6027
4.58873 23.6321
4.61168 23.701
4.63462 23.8042
4.65756 23.9109
4.68051 23.9765
4.70345 24.0909
4.72639 24.2982
4.74934 24.4848
4.77228 24.6432
4.79522 24.8799
4.81817 25.2076
4.84111 25.5654
4.86406 26.1487
4.887 27.1444
4.90994 29.1368
4.93289 33.6237
4.95583 45.6434
4.97877 80.7708
5.00172 156.221
5.02466 240.035
5.04761 251.695
5.07055 185.934
5.09349 103.891
5.11644 56.228
5.13938 37.978
5.16232 31.6309
5.18527 29.0518
5.20821 27.9056
5.23115 27.3005
5.2541 26.878
5.27704 26.6111
5.29999 26.418
5.32293 26.2714
5.34587 26.1923
5.36882 26.1177
5.39176 26.0167
5.4147 25.965
5.43765 25.9028
5.46059 25.8354
5.48353 25.8002
5.50648 25.811
5.52942 25.831
5.55237 25.9067
5.57531 26.007
5.59825 26.0518
5.6212 26.1781
5.64414 26.3588
5.66708 26.621
5.69003 26.8979
5.71297 27.2545
5.73591 27.7574
5.75886 28.7278
5.7818 30.7409
5.80475 35.3474
5.82769 47.7363
5.85063 83.0428
5.87358 158.053
5.89652 243.033
5.91946 260.161
5.94241 189.541
5.96535 104.141
5.9883 56.2338
6.01124 38.1046
6.03418 31.9092
6.05713 30.0412
6.08007 30.9553
6.10301 36.3416
6.12596 50.5678
6.1489 73.1552
6.17184 88.5626
6.19479 79.3838
6.21773 56.0647
6.24068 37.6007
6.26362 29.0581
6.28656 25.891
6.30951 24.6253
6.33245 24.034
6.35539 23.6159
6.37834 23.2269
6.40128 22.9491
6.42422 22.7257
6.44717 22.5675
6.47011 22.4187
6.49306 22.2288
6.516 22.0674
6.53894 21.9421
6.56189 21.834
6.58483 21.7834
6.60777 21.6818
6.63072 21.5823
6.65366 21.4804
6.67661 21.3683
6.69955 21.2946
6.72249 21.229
6.74544 21.1693
6.76838 21.0752
6.79132 21.0285
6.81427 20.9812
6.83721 20.9334
6.86015 20.9487
6.8831 20.9669
6.90604 20.9307
6.92899 20.9131
6.95193 20.9667
6.97487 21.0617
6.99782 21.2393
7.02076 21.6103
7.0437 22.766
7.06665 26.0561
7.08959 33.1402
7.11253 42.4903
7.13548 45.4552
7.15842 38.9336
7.18137 29.7987
7.20431 24.3616
7.22725 22.23
7.2502 21.4408
7.27314 21.1285
7.29608 20.9816
7.31903 20.9667
7.34197 21.0088
7.36491 21.0012
7.38786 21.0677
7.4108 21.1253
7.43375 21.1273
7.45669 21.1693
7.47963 21.2644
7.50258 21.3969
7.52552 21.5186
7.54846 21.6321
7.57141 21.8317
7.59435 22.1734
7.6173 22.6232
7.64024 23.3202
7.66318 24.7628
7.68613 28.5362
7.70907 38.992
7.73201 62.0454
7.75496 91.7756
7.7779 98.5104
7.80084 76.1535
7.82379 48.3903
7.84673 33.5653
7.86968 29.1851
7.89262 30.8655
7.91556 40.6384
7.93851 62.1431
7.96145 85.2264
7.98439 85.8998
8.00734 63.3674
8.03028 40.4202
8.05322 29.0574
8.07617 24.8996
8.09911 23.2595
8.12206 22.5297
8.145 22.1387
8.16794 21.886
8.19089 21.7526
8.21383 21.6575
8.23677 21.5383
8.25972 21.4201
8.28266 21.2853
8.3056 21.2397
8.32855 21.2345
8.35149 21.2174
8.37444 21.1463
8.39738 21.1478
8.42032 21.1153
8.44327 21.1128
8.46621 21.1637
8.48915 21.1603
8.5121 21.2445
8.53504 21.345
8.55799 21.411
8.58093 21.6028
8.60387 21.9913
8.62682 22.8121
8.64976 24.9887
8.6727 31.0821
8.69565 44.5238
8.71859 61.8072
8.74153 65.8269
8.76448 51.9697
8.78742 35.5487
8.81037 26.699
8.83331 23.3857
8.85625 22.1529
8.8792 21.6208
8.90214 21.3425
8.92508 21.1654
8.94803 21.0491
8.97097 21.0144
8.99391 20.9477
9.01686 20.8529
9.0398 20.8423
9.06275 20.9154
9.08569 20.9556
9.10863 21.0428
9.13158 21.3885
9.15452 22.0974
9.17746 23.9025
9.20041 29.0988
9.22335 41.2519
9.24629 58.3174
9.26924 64.5441
9.29218 52.4785
9.31513 35.8392
9.33807 26.2879
9.36101 22.6018
9.38396 21.2111
9.4069 20.5887
9.42984 20.2633
9.45279 20.1046
9.47573 19.9617
9.49868 19.8775
9.52162 19.8022
9.54456 19.7032
9.56751 19.5984
9.59045 19.5039
9.61339 19.4373
9.63634 19.399
9.65928 19.4139
9.68222 19.4127
9.70517 19.3931
9.72811 19.3627
9.75106 19.3045
9.774 19.2757
9.79694 19.2743
9.81989 19.2987
9.84283 19.3242
9.86577 19.3193
9.88872 19.3633
9.91166 19.4334
9.9346 19.5095
9.95755 19.6125
9.98049 19.8233
10.0034 20.3619
10.0264 21.8867
10.0493 25.0871
10.0723 28.9538
10.0952 29.7804
10.1182 26.5134
10.1411 22.875
10.164 20.9855
10.187 20.2444
10.2099 20.0172
10.2329 19.9667
10.2558 19.9373
10.2788 19.9358
10.3017 19.9824
10.3246 20.0197
10.3476 20.0973
10.3705 20.2377
10.3935 20.4229
10.4164 20.7689
10.4394 21.43
10.4623 23.0226
10.4853 27.4029
10.5082 37.6117
10.5311 52.1677
10.5541 58.3286
10.577 48.1394
10.6 34.5107
10.6229 27.8485
10.6459 28.4175
10.6688 34.4335
10.6917 40.9275
10.7147 39.5179
10.7376 31.53
10.7606 24.8974
10.7835 21.8804
10.8065 20.7542
10.8294 20.2838
10.8524 20.029
10.8753 19.8129
10.8982 19.6848
10.9212 19.5489
10.9441 19.4685
10.9671 19.3972
10.99 19.3196
11.013 19.2582
11.0359 19.2384
11.0588 19.2116
11.0818 19.175
11.1047 19.1566
11.1277 19.1511
11.1506 19.2187
11.1736 19.434
11.1965 20.0934
11.2194 21.9232
11.2424 25.8727
11.2653 30.5053
11.2883 31.0264
11.3112 26.7747
11.3342 22.3842
11.3571 20.1064
11.3801 19.2462
11.403 18.9167
11.4259 18.7781
11.4489 18.6768
11.4718 18.6193
11.4948 18.6206
11.5177 18.6523
11.5407 18.7052
11.5636 18.7807
11.5865 18.9448
11.6095 19.4469
11.6324 20.8192
11.6554 24.0155
11.6783 28.2368
11.7013 29.5351
11.7242 26.4382
11.7472 22.9466
11.7701 22.0784
11.793 24.0586
11.816 27.2092
11.8389 27.7381
11.8619 24.6376
11.8848 21.2483
11.9078 19.4039
11.9307 18.6208
11.9536 18.2878
11.9766 18.1544
11.9995 18.0644
12.0225 17.9917
12.0454 17.9679
12.0684 17.9181
12.0913 17.8852
12.1143 17.8604
12.1372 17.7861
12.1601 17.7522
12.1831 17.8018
12.206 17.8004
12.229 17.8001
12.2519 17.8758
12.2749 18.0398
12.2978 18.3942
12.3207 19.1609
12.3437 20.1012
12.3666 20.2524
12.3896 19.4184
12.4125 18.5142
12.4355 18.0519
12.4584 17.8781
12.4814 17.8431
12.5043 17.8164
12.5272 17.8638
12.5502 17.9405
12.5731 17.9884
12.5961 18.0856
12.619 18.2721
12.642 18.7331
12.6649 19.9614
12.6878 22.8831
12.7108 28.0135
12.7337 32.0982
12.7567 30.562
12.7796 25.5316
12.8026 22.4819
12.8255 22.7427
12.8484 24.5531
12.8714 24.7445
12.8943 22.4934
12.9173 20.0465
12.9402 18.7637
12.9632 18.2791
12.9861 18.0803
13.0091 17.9607
13.032 17.8867
13.0549 17.8521
13.0779 17.7841
13.1008 17.7778
13.1238 17.8123
13.1467 17.8091
13.1697 17.8059
13.1926 17.8518
13.2155 17.9599
13.2385 18.1433
13.2614 18.5979
13.2844 19.8987
13.3073 22.753
13.3303 26.8198
13.3532 28.4985
13.3762 25.727
13.3991 21.7349
13.422 19.3637
13.445 18.4384
13.4679 18.0974
13.4909 17.9658
13.5138 17.9079
13.5368 17.8577
13.5597 17.8788
13.5826 18.0217
13.6056 18.4567
13.6285 19.5789
13.6515 22.3775
13.6744 27.3546
13.6974 31.2108
13.7203 29.6735
13.7433 24.5629
13.7662 20.4727
13.7891 18.5288
13.8121 17.7448
13.835 17.4613
13.858 17.3417
13.8809 17.231
13.9039 17.1417
13.9268 17.02
13.9497 16.9646
13.9727 16.9231
13.9956 16.8528
14.0186 16.8147
14.0415 16.7709
14.0645 16.7264
14.0874 16.6835
14.1104 16.6446
14.1333 16.6133
14.1562 16.5788
14.1792 16.5885
14.2021 16.6502
14.2251 16.8254
14.248 17.0956
14.271 17.2367
14.2939 17.1131
14.3168 16.8332
14.3398 16.6084
14.3627 16.4522
14.3857 16.4409
14.4086 16.4108
14.4316 16.3981
14.4545 16.4019
14.4774 16.444
14.5004 16.5394
14.5233 16.8011
14.5463 17.3251
14.5692 18.3249
14.5922 19.424
14.6151 19.7047
14.6381 19.3128
14.661 19.4393
14.6839 20.769
14.7069 22.1042
14.7298 21.5915
14.7528 19.555
14.7757 17.7465
14.7987 16.8321
14.8216 16.4602
14.8445 16.3146
14.8675 16.2579
14.8904 16.1926
14.9134 16.1701
14.9363 16.1622
14.9593 16.173
14.9822 16.1527
15.0052 16.1332
15.0281 16.2031
15.051 16.3844
15.074 16.845
15.0969 17.7922
15.1199 19.0334
15.1428 19.6228
15.1658 18.9159
15.1887 17.6013
15.2116 16.7133
15.2346 16.2842
15.2575 16.1164
15.2805 16.0926
15.3034 16.087
15.3264 16.1439
15.3493 16.2583
15.3723 16.6313
15.3952 17.5451
15.4181 19.1371
15.4411 20.8145
15.464 21.0433
15.487 19.8281
15.5099 18.6611
15.5329 18.2904
15.5558 18.2006
15.5787 17.6827
15.6017 16.9206
15.6246 16.3094
15.6476 15.9633
15.6705 15.8291
15.6935 15.7461
15.7164 15.6753
15.7394 15.6672
15.7623 15.6646
15.7852 15.6229
15.8082 15.5487
15.8311 15.5316
15.8541 15.5906
15.877 15.7174
15.9 15.9539
15.9229 16.3721
15.9458 16.8436
15.9688 16.9975
15.9917 16.6408
16.0147 16.0973
16.0376 15.7328
16.0606 15.5631
16.0835 15.5257
16.1064 15.52
16.1294 15.5535
16.1523 15.6712
16.1753 15.9438
16.1982 16.7262
16.2212 18.1153
16.2441 19.5186
16.2671 19.9256
16.29 19.3199
16.3129 18.6222
16.3359 18.4421
16.3588 18.3619
16.3818 17.7114
16.4047 16.6457
16.4277 15.8212
16.4506 15.4193
16.4735 15.2003
16.4965 15.0599
16.5194 14.9688
16.5424 14.9242
16.5653 14.8919
16.5883 14.8736
16.6112 14.856
16.6342 14.8154
16.6571 14.8968
16.68 15.058
16.703 15.4038
16.7259 15.7344
16.7489 15.8482
16.7718 15.6212
16.7948 15.1922
16.8177 14.8283
16.8406 14.6478
16.8636 14.5651
16.8865 14.5718
16.9095 14.5488
16.9324 14.6245
16.9554 14.8772
16.9783 15.3844
17.0013 15.9804
17.0242 16.3325
17.0471 16.1211
17.0701 15.4916
17.093 14.8869
17.116 14.5129
17.1389 14.3142
17.1619 14.2497
17.1848 14.2296
17.2077 14.1797
17.2307 14.1555
17.2536 14.1263
17.2766 14.0969
17.2995 14.0528
17.3225 14.0359
17.3454 14.0284
17.3684 14.0732
17.3913 14.1135
17.4142 14.2021
17.4372 14.3881
17.4601 14.6421
17.4831 14.8119
17.506 14.7606
17.529 14.5433
17.5519 14.2917
17.5748 14.1346
17.5978 14.0462
17.6207 14.034
17.6437 14.103
17.6666 14.2078
17.6896 14.5386
17.7125 15.1127
17.7354 15.7971
17.7584 16.2494
17.7813 16.2417
17.8043 15.893
17.8272 15.4266
17.8502 15.0805
17.8731 14.7989
17.8961 14.447
17.919 14.1603
17.9419 13.9647
17.9649 13.8457
17.9878 13.8097
18.0108 13.784
18.0337 13.7487
18.0567 13.7709
18.0796 13.7916
18.1025 13.8462
18.1255 14.0334
18.1484 14.4213
18.1714 14.9176
18.1943 15.2712
18.2173 15.2914
18.2402 14.9464
18.2632 14.4131
18.2861 13.9802
18.309 13.748
18.332 13.6547
18.3549 13.6569
18.3779 13.7392
18.4008 13.9857
18.4238 14.4016
18.4467 14.8033
18.4696 15.0667
18.4926 15.0549
18.5155 14.8206
18.5385 14.4918
18.5614 14.1607
18.5844 13.8632
18.6073 13.617
18.6303 13.4062
18.6532 13.2295
18.6761 13.1372
18.6991 13.097
18.722 13.0644
18.745 13.0348
18.7679 12.9985
18.7909 12.9662
18.8138 12.9604
18.8367 12.9083
18.8597 12.875
18.8826 12.8719
18.9056 12.8609
18.9285 12.8619
18.9515 12.8822
18.9744 12.8554
18.9974 12.8311
19.0203 12.841
19.0432 12.8661
19.0662 12.9538
19.0891 13.1447
19.1121 13.38
19.135 13.607
19.158 13.829
19.1809 13.9861
19.2038 14.0182
19.2268 13.9339
19.2497 13.7522
19.2727 13.4209
19.2956 13.046
19.3186 12.775
19.3415 12.6343
19.3644 12.5555
19.3874 12.4807
19.4103 12.4633
19.4333 12.4762
19.4562 12.4985
19.4792 12.546
19.5021 12.6674
19.5251 12.7811
19.548 12.8367
19.5709 12.8319
19.5939 12.7419
19.6168 12.5549
19.6398 12.4043
19.6627 12.2763
19.6857 12.2404
19.7086 12.2498
19.7315 12.3158
19.7545 12.4247
19.7774 12.5117
19.8004 12.5463
19.8233 12.5312
19.8463 12.4046
19.8692 12.2485
19.8922 12.0965
19.9151 12.0153
19.938 11.9787
19.961 11.9295
19.9839 11.8849
20.0069 11.8534
20.0298 11.8165
20.0528 11.8037
20.0757 11.8075
20.0986 11.8031
20.1216 11.7803
20.1445 11.8306
20.1675 11.8357
20.1904 11.8312
20.2134 11.8144
20.2363 11.8125
20.2593 11.8191
20.2822 11.7928
20.3051 11.7815
20.3281 11.8292
20.351 11.9272
20.374 12.1201
20.3969 12.3439
20.4199 12.5615
20.4428 12.7423
20.4657 12.7969
20.4887 12.677
20.5116 12.4293
20.5346 12.1758
20.5575 11.9714
20.5805 11.8129
20.6034 11.6499
20.6264 11.5473
20.6493 11.4796
20.6722 11.4379
20.6952 11.436
20.7181 11.4391
20.7411 11.484
20.764 11.5367
20.787 11.6122
20.8099 11.6174
20.8328 11.6091
20.8558 11.5977
20.8787 11.5115
20.9017 11.3937
20.9246 11.3265
20.9476 11.3072
20.9705 11.3301
20.9934 11.4254
21.0164 11.5361
21.0393 11.5763
21.0623 11.6378
21.0852 11.6843
21.1082 11.642
21.1311 11.4859
21.1541 11.3645
21.177 11.2686
21.1999 11.1597
21.2229 11.0345
21.2458 10.9591
21.2688 10.8981
21.2917 10.8787
21.3147 10.8856
21.3376 10.8246
21.3605 10.8625
21.3835 10.8687
21.4064 10.8695
21.4294 10.8536
21.4523 10.8364
21.4753 10.8503
21.4982 10.8189
21.5212 10.743
21.5441 10.6733
21.567 10.6494
21.59 10.7122
21.6129 10.7391
21.6359 10.7599
21.6588 10.7663
21.6818 10.7911
21.7047 10.7949
21.7276 10.7167
21.7506 10.6291
21.7735 10.5298
21.7965 10.4724
21.8194 10.4236
21.8424 10.3746
21.8653 10.3655
21.8883 10.3637
21.9112 10.3337
21.9341 10.365
21.9571 10.4326
21.98 10.4785
22.003 10.4668
22.0259 10.449
22.0489 10.4416
22.0718 10.4192
22.0947 10.3704
22.1177 10.3079
22.1406 10.2822
22.1636 10.2848
22.1865 10.336
22.2095 10.3588
22.2324 10.3464
22.2554 10.319
22.2783 10.2988
22.3012 10.2479
22.3242 10.131
22.3471 10.0409
22.3701 9.95722
22.393 9.92981
22.416 9.93415
22.4389 9.88387
22.4618 9.88994
22.4848 9.83884
22.5077 9.83673
22.5307 9.83521
22.5536 9.84926
22.5766 9.83071
22.5995 9.81092
22.6224 9.79144
22.6454 9.76479
22.6683 9.75381
22.6913 9.73949
22.7142 9.72417
22.7372 9.72361
22.7601 9.71922
22.7831 9.75039
22.806 9.80444
22.8289 9.83667
22.8519 9.83359
22.8748 9.80299
22.8978 9.78203
22.9207 9.76297
22.9437 9.70639
22.9666 9.62863
22.9895 9.54371
23.0125 9.48855
23.0354 9.49532
23.0584 9.49693
23.0813 9.48474
23.1043 9.46998
23.1272 9.45662
23.1502 9.45061
23.1731 9.47228
23.196 9.46261
23.219 9.44807
23.2419 9.41644
23.2649 9.39986
23.2878 9.41366
23.3108 9.44847
23.3337 9.45777
23.3566 9.45128
23.3796 9.44149
23.4025 9.44267
23.4255 9.41682
23.4484 9.3642
23.4714 9.26605
23.4943 9.18469
23.5173 9.1333
23.5402 9.09733
23.5631 9.07138
23.5861 9.0526
23.609 9.0636
23.632 9.03924
23.6549 9.03234
23.6779 9.03534
23.7008 9.02051
23.7237 8.99734
23.7467 8.97383
23.7696 8.96916
23.7926 8.98129
23.8155 8.99314
23.8385 9.00768
23.8614 9.03432
23.8844 9.04414
23.9073 9.03131
23.9302 9.00193
23.9532 8.99446
23.9761 8.99171
23.9991 8.90979
24.022 8.84348
24.045 8.80482
24.0679 8.7602
24.0908 8.70888
24.1138 8.67442
24.1367 8.6511
24.1597 8.64961
24.1826 8.62903
24.2056 8.62286
24.2285 8.58589
24.2514 8.56125
24.2744 8.56321
24.2973 8.56181
24.3203 8.53071
24.3432 8.50455
24.3662 8.49323
24.3891 8.46552
24.4121 8.45105
24.435 8.45915
24.4579 8.42115
24.4809 8.36557
24.5038 8.34253
24.5268 8.32455
24.5497 8.31221
24.5727 8.28872
24.5956 8.28273
24.6185 8.24051
24.6415 8.24073
24.6644 8.20531
24.6874 8.19375
24.7103 8.18495
24.7333 8.18093
24.7562 8.16554
24.7792 8.17184
24.8021 8.14741
24.825 8.11474
24.848 8.08056
24.8709 8.10114
24.8939 8.09171
24.9168 8.10511
24.9398 8.10235
24.9627 8.09235
24.9856 8.09081
