[DEFAULT]

version = diffpy.pdfgetx-2.1.0

# input and output specifications
dataformat = QA
backgroundfile =
outputtype = iq

# PDF calculation setup
mode = xray
composition = Ni
bgscale = 1
rpoly = 2
qmaxinst = 25
qmin = 0
qmax = 24
rmin = 2
rmax = 60
rstep = 0.01

# End of config --------------------------------------------------------------

#### start data
#S 1
#L Q(Ã…$^{-1}$)  intensity(a.u.)
0 6.01778
0.0228872 6.01778
0.0457744 5.70626
0.0686616 5.49887
0.0915488 4.75265
0.114436 4.80918
0.137323 4.64917
0.16021 4.70001
0.183098 5.33308
0.205985 5.4772
0.228872 6.217
0.251759 7.26057
0.274646 9.40011
0.297534 19.2276
0.320421 36.3079
0.343308 61.2228
0.366195 67.1713
0.389082 53.9959
0.41197 38.3991
0.434857 30.7528
0.457744 28.9012
0.480631 30.612
0.503518 32.863
0.526405 34.6851
0.549293 36.5419
0.57218 39.4457
0.595067 43.032
0.617954 46.2329
0.640841 50.7938
0.663729 55.5797
0.686616 59.6974
0.709503 63.0263
0.73239 65.7849
0.755277 67.9261
0.778165 69.4997
0.801052 70.1321
0.823939 70.1121
0.846826 70.023
0.869713 70.2511
0.892601 70.9214
0.915488 71.9688
0.938375 73.6171
0.961262 75.602
0.984149 77.5431
1.00704 79.457
1.02992 80.7493
1.05281 81.3371
1.0757 81.5905
1.09859 81.8829
1.12147 82.2597
1.14436 82.8234
1.16725 83.4075
1.19013 83.6178
1.21302 83.7794
1.23591 84.3396
1.2588 84.9105
1.28168 85.2998
1.30457 85.8891
1.32746 86.385
1.35034 86.5532
1.37323 86.409
1.39612 85.763
1.41901 85.2969
1.44189 84.2873
1.46478 83.1047
1.48767 81.9849
1.51055 80.2798
1.53344 78.1813
1.55633 75.8707
1.57922 73.4451
1.6021 70.749
1.62499 68.0772
1.64788 65.6369
1.67077 63.6529
1.69365 61.7125
1.71654 60.2098
1.73943 59.0963
1.76231 58.1541
1.7852 57.5085
1.80809 56.74
1.83098 55.9335
1.85386 54.9269
1.87675 53.7632
1.89964 52.5715
1.92252 51.3662
1.94541 50.1688
1.9683 48.949
1.99119 47.7895
2.01407 46.7045
2.03696 45.5251
2.05985 44.344
2.08273 43.4655
2.10562 42.6162
2.12851 42.0517
2.1514 41.5466
2.17428 40.9152
2.19717 40.2791
2.22006 39.5851
2.24295 38.9697
2.26583 38.4484
2.28872 38.0771
2.31161 37.6459
2.33449 37.3132
2.35738 36.9418
2.38027 36.6512
2.40316 36.4167
2.42604 36.3255
2.44893 36.2245
2.47182 36.2173
2.4947 36.1938
2.51759 36.134
2.54048 36.2172
2.56337 36.2093
2.58625 36.1878
2.60914 36.2815
2.63203 36.389
2.65491 36.5443
2.6778 36.7311
2.70069 36.8538
2.72358 37.0194
2.74646 37.1716
2.76935 37.3558
2.79224 37.536
2.81512 37.9478
2.83801 38.362
2.8609 39.0651
2.88379 39.9011
2.90667 41.1947
2.92956 43.5573
2.95245 48.19
2.97534 59.1126
2.99822 89.5053
3.02111 178.848
3.044 395.77
3.06688 666.395
3.08977 788.188
3.11266 624.283
3.13555 345.075
3.15843 158.77
3.18132 82.7217
3.20421 55.8256
3.22709 46.362
3.24998 41.9113
3.27287 39.3778
3.29576 37.713
3.31864 36.6176
3.34153 35.9114
3.36442 35.5036
3.3873 35.5762
3.41019 36.2995
3.43308 38.4444
3.45597 43.9102
3.47885 58.9443
3.50174 106.44
3.52463 214.304
3.54752 350.323
3.5704 389.827
3.59329 292.021
3.61618 157.942
3.63906 78.871
3.66195 48.2243
3.68484 37.1236
3.70773 32.3885
3.73061 30.2869
3.7535 29.1484
3.77639 28.4483
3.79927 27.9444
3.82216 27.3782
3.84505 26.9214
3.86794 26.4897
3.89082 26.1547
3.91371 25.9487
3.9366 25.6791
3.95948 25.5176
3.98237 25.3508
4.00526 25.0588
4.02815 24.7892
4.05103 24.5968
4.07392 24.5198
4.09681 24.3828
4.1197 24.2836
4.14258 24.2186
4.16547 24.1156
4.18836 24.05
4.21124 24.0173
4.23413 23.8954
4.25702 23.8255
4.27991 23.7218
4.30279 23.6975
4.32568 23.6573
4.34857 23.5832
4.37145 23.5445
4.39434 23.5022
4.41723 23.5153
4.44012 23.462
4.463 23.4139
4.48589 23.4629
4.50878 23.507
4.53166 23.5994
4.55455 23.5994
4.57744 23.636
4.60033 23.65
4.62321 23.7475
4.6461 23.8391
4.66899 23.9286
4.69187 24.019
4.71476 24.1574
4.73765 24.4101
4.76054 24.5651
4.78342 24.7284
4.80631 25.0593
4.8292 25.3222
4.85209 25.7705
4.87497 26.5044
4.89786 27.7904
4.92075 30.473
4.94363 36.8038
4.96652 54.249
4.98941 105.529
5.0123 192.315
5.03518 260.2
5.05807 231.496
5.08096 146.796
5.10384 77.0378
5.12673 46.2254
5.14962 34.4451
5.17251 30.2973
5.19539 28.448
5.21828 27.6225
5.24117 27.1235
5.26405 26.7454
5.28694 26.5174
5.30983 26.405
5.33272 26.2733
5.3556 26.1643
5.37849 26.0869
5.40138 26.0032
5.42427 25.9431
5.44715 25.8817
5.47004 25.8117
5.49293 25.7957
5.51581 25.8133
5.5387 25.8426
5.56159 25.9804
5.58448 26.0452
5.60736 26.0756
5.63025 26.2154
5.65314 26.461
5.67602 26.7151
5.69891 26.9665
5.7218 27.3495
5.74469 27.9844
5.76757 29.2417
5.79046 31.6803
5.81335 37.4265
5.83623 53.7401
5.85912 99.0279
5.88201 186.66
5.9049 261.458
5.92778 248.474
5.95067 159.014
5.97356 82.0394
5.99645 47.344
6.01933 35.0844
6.04222 30.9078
6.06511 29.9215
6.08799 31.6537
6.11088 38.6974
6.13377 55.7731
6.15666 79.5808
6.17954 90.3163
6.20243 73.4266
6.22532 47.5476
6.2482 33.4157
6.27109 27.662
6.29398 25.3791
6.31687 24.4115
6.33975 23.9395
6.36264 23.5067
6.38553 23.1302
6.40841 22.8959
6.4313 22.6784
6.45419 22.5433
6.47708 22.3548
6.49996 22.1668
6.52285 22.0313
6.54574 21.9174
6.56862 21.834
6.59151 21.7802
6.6144 21.6555
6.63729 21.5676
6.66017 21.4457
6.68306 21.364
6.70595 21.2857
6.72884 21.2006
6.75172 21.1401
6.77461 21.057
6.7975 21.0426
6.82038 20.9597
6.84327 20.9058
6.86616 20.9644
6.88905 20.9588
6.91193 20.9263
6.93482 20.9204
6.95771 20.974
6.98059 21.0857
7.00348 21.2592
7.02637 21.717
7.04926 23.1252
7.07214 26.865
7.09503 34.6673
7.11792 44.1909
7.1408 45.6266
7.16369 37.2976
7.18658 28.1565
7.20947 23.6646
7.23235 21.9774
7.25524 21.3389
7.27813 21.0795
7.30102 20.9787
7.3239 20.9755
7.34679 21.0014
7.36968 21.0001
7.39256 21.0666
7.41545 21.1315
7.43834 21.1441
7.46123 21.1672
7.48411 21.2689
7.507 21.406
7.52989 21.5344
7.55277 21.6448
7.57566 21.8289
7.59855 22.2139
7.62144 22.7152
7.64432 23.4587
7.66721 25.0312
7.6901 29.1853
7.71298 40.4656
7.73587 65.9529
7.75876 96.7032
7.78165 98.9681
7.80453 72.1623
7.82742 44.5135
7.85031 32.113
7.87319 28.8526
7.89608 31.186
7.91897 41.8263
7.94186 64.8974
7.96474 88.504
7.98763 85.9549
8.01052 60.5156
8.03341 37.8535
8.05629 28.1081
8.07918 24.5696
8.10207 23.1281
8.12495 22.4954
8.14784 22.1206
8.17073 21.8531
8.19362 21.7356
8.2165 21.6558
8.23939 21.5273
8.26228 21.3871
8.28516 21.2547
8.30805 21.2273
8.33094 21.2373
8.35383 21.2297
8.37671 21.1255
8.3996 21.1456
8.42249 21.1295
8.44537 21.1436
8.46826 21.1848
8.49115 21.1373
8.51404 21.2603
8.53692 21.3552
8.55981 21.4009
8.5827 21.6259
8.60559 22.0187
8.62847 22.8466
8.65136 24.9884
8.67425 31.0526
8.69713 44.8855
8.72002 63.0718
8.74291 66.7413
8.7658 51.2964
8.78868 34.3778
8.81157 26.1855
8.83446 23.2258
8.85734 22.0754
8.88023 21.586
8.90312 21.3232
8.92601 21.1479
8.94889 21.058
8.97178 21.0232
8.99467 20.9616
9.01755 20.8577
9.04044 20.829
9.06333 20.9279
9.08622 20.9513
9.1091 21.0442
9.13199 21.3782
9.15488 22.0676
9.17777 23.8194
9.20065 28.6679
9.22354 40.6555
9.24643 58.6726
9.26931 66.2769
9.2922 52.8382
9.31509 35.2921
9.33798 26.0285
9.36086 22.5169
9.38375 21.1823
9.40664 20.5751
9.42952 20.2532
9.45241 20.0987
9.4753 19.9738
9.49819 19.8936
9.52107 19.8143
9.54396 19.7056
9.56685 19.6144
9.58973 19.5058
9.61262 19.4418
9.63551 19.3832
9.6584 19.4253
9.68128 19.4183
9.70417 19.3955
9.72706 19.3666
9.74994 19.3067
9.77283 19.2658
9.79572 19.2751
9.81861 19.3022
9.84149 19.3197
9.86438 19.3227
9.88727 19.3461
9.91016 19.4244
9.93304 19.5097
9.95593 19.5964
9.97882 19.7995
10.0017 20.2804
10.0246 21.6367
10.0475 24.7336
10.0704 29.0067
10.0933 30.1597
10.1161 26.819
10.139 22.9267
10.1619 20.9919
10.1848 20.2505
10.2077 20.0175
10.2306 19.9793
10.2535 19.9559
10.2764 19.922
10.2992 19.9839
10.3221 20.0122
10.345 20.08
10.3679 20.2212
10.3908 20.3961
10.4137 20.7085
10.4366 21.3031
10.4594 22.6852
10.4823 26.4533
10.5052 35.8867
10.5281 51.0632
10.551 59.6208
10.5739 49.9392
10.5968 35.0868
10.6197 27.7018
10.6425 27.7013
10.6654 33.3789
10.6883 40.9338
10.7112 40.773
10.7341 32.4516
10.757 25.1856
10.7799 21.9653
10.8028 20.8051
10.8256 20.3063
10.8485 20.0467
10.8714 19.8329
10.8943 19.7006
10.9172 19.5596
10.9401 19.4752
10.963 19.402
10.9859 19.3311
11.0087 19.2519
11.0316 19.2353
11.0545 19.2255
11.0774 19.172
11.1003 19.1611
11.1232 19.1458
11.1461 19.1961
11.169 19.3654
11.1918 19.9124
11.2147 21.454
11.2376 25.0898
11.2605 30.0905
11.2834 31.7189
11.3063 27.5795
11.3292 22.7643
11.352 20.2466
11.3749 19.2961
11.3978 18.9413
11.4207 18.7853
11.4436 18.6923
11.4665 18.6131
11.4894 18.6156
11.5123 18.6488
11.5351 18.6924
11.558 18.7649
11.5809 18.8956
11.6038 19.2746
11.6267 20.3974
11.6496 23.1256
11.6725 27.6766
11.6954 30.0682
11.7182 27.3139
11.7411 23.2208
11.764 21.8107
11.7869 23.3784
11.8098 26.7892
11.8327 28.3229
11.8556 25.4512
11.8785 21.6687
11.9013 19.5655
11.9242 18.6938
11.9471 18.3099
11.97 18.1598
11.9929 18.0845
12.0158 17.9943
12.0387 17.9824
12.0616 17.9231
12.0844 17.8906
12.1073 17.8568
12.1302 17.8052
12.1531 17.7383
12.176 17.8041
12.1989 17.8064
12.2218 17.782
12.2446 17.8505
12.2675 17.9865
12.2904 18.269
12.3133 18.9399
12.3362 19.957
12.3591 20.4082
12.382 19.6684
12.4049 18.6515
12.4277 18.1024
12.4506 17.8889
12.4735 17.8402
12.4964 17.8195
12.5193 17.8459
12.5422 17.9285
12.5651 17.9693
12.588 18.054
12.6108 18.2014
12.6337 18.5531
12.6566 19.4817
12.6795 21.8309
12.7024 26.6572
12.7253 31.8491
12.7482 31.8364
12.7711 26.6345
12.7939 22.6448
12.8168 22.286
12.8397 24.1553
12.8626 25.1898
12.8855 23.2724
12.9084 20.4796
12.9313 18.9104
12.9542 18.3237
12.977 18.1172
12.9999 17.9878
13.0228 17.9041
13.0457 17.8678
13.0686 17.8069
13.0915 17.7677
13.1144 17.8097
13.1372 17.8104
13.1601 17.7876
13.183 17.831
13.2059 17.9276
13.2288 18.0801
13.2517 18.4043
13.2746 19.3578
13.2975 21.7168
13.3203 25.8288
13.3432 28.9075
13.3661 27.0396
13.389 22.65
13.4119 19.6893
13.4348 18.5362
13.4577 18.1542
13.4806 17.9792
13.5034 17.9164
13.5263 17.8612
13.5492 17.8471
13.5721 17.9576
13.595 18.2648
13.6179 19.1052
13.6408 21.2785
13.6637 25.7817
13.6865 30.8628
13.7094 31.0566
13.7323 26.1158
13.7552 21.244
13.7781 18.8295
13.801 17.8629
13.8239 17.4925
13.8468 17.3708
13.8696 17.2607
13.8925 17.1638
13.9154 17.0773
13.9383 16.9647
13.9612 16.9417
13.9841 16.8705
14.007 16.8244
14.0299 16.7909
14.0527 16.7192
14.0756 16.6904
14.0985 16.6452
14.1214 16.64
14.1443 16.5973
14.1672 16.5636
14.1901 16.6223
14.2129 16.7482
14.2358 17.0272
14.2587 17.2603
14.2816 17.1865
14.3045 16.9102
14.3274 16.6672
14.3503 16.4972
14.3732 16.4265
14.396 16.417
14.4189 16.39
14.4418 16.3971
14.4647 16.4249
14.4876 16.4823
14.5105 16.7064
14.5334 17.1001
14.5563 17.9664
14.5791 19.1604
14.602 19.8112
14.6249 19.4424
14.6478 19.1616
14.6707 20.2342
14.6936 21.9738
14.7165 22.1805
14.7394 20.2845
14.7622 18.1673
14.7851 17.0138
14.808 16.5557
14.8309 16.3347
14.8538 16.2726
14.8767 16.2068
14.8996 16.162
14.9225 16.1637
14.9453 16.1693
14.9682 16.1552
14.9911 16.1168
15.014 16.1677
15.0369 16.3058
15.0598 16.6286
15.0827 17.4092
15.1055 18.6593
15.1284 19.6655
15.1513 19.3669
15.1742 18.0409
15.1971 16.93
15.22 16.3732
15.2429 16.135
15.2658 16.0931
15.2886 16.0721
15.3115 16.1116
15.3344 16.2049
15.3573 16.4339
15.3802 17.1397
15.4031 18.581
15.426 20.4755
15.4489 21.3458
15.4717 20.3857
15.4946 18.935
15.5175 18.3137
15.5404 18.2908
15.5633 17.9532
15.5862 17.1805
15.6091 16.4708
15.632 16.0211
15.6548 15.8517
15.6777 15.7674
15.7006 15.6888
15.7235 15.6601
15.7464 15.6782
15.7693 15.6407
15.7922 15.5518
15.8151 15.5365
15.8379 15.5622
15.8608 15.6555
15.8837 15.865
15.9066 16.2347
15.9295 16.7036
15.9524 17.057
15.9753 16.8411
15.9981 16.285
16.021 15.8472
16.0439 15.5664
16.0668 15.5152
16.0897 15.5076
16.1126 15.5246
16.1355 15.6179
16.1584 15.8247
16.1812 16.4033
16.2041 17.6017
16.227 19.1835
16.2499 20.082
16.2728 19.6333
16.2957 18.7416
16.3186 18.4664
16.3415 18.473
16.3643 18.051
16.3872 17.0456
16.4101 16.0581
16.433 15.5349
16.4559 15.2794
16.4788 15.1081
16.5017 15.0051
16.5246 14.9026
16.5474 14.884
16.5703 14.8905
16.5932 14.8688
16.6161 14.8211
16.639 14.8447
16.6619 14.9909
16.6848 15.2828
16.7077 15.6555
16.7305 15.8826
16.7534 15.7469
16.7763 15.3315
16.7992 14.9442
16.8221 14.6823
16.845 14.5898
16.8679 14.5664
16.8907 14.5581
16.9136 14.587
16.9365 14.763
16.9594 15.2183
16.9823 15.8282
17.0052 16.2972
17.0281 16.3236
17.051 15.7706
17.0738 15.0963
17.0967 14.6396
17.1196 14.3583
17.1425 14.2642
17.1654 14.2169
17.1883 14.1834
17.2112 14.1769
17.2341 14.126
17.2569 14.0885
17.2798 14.0644
17.3027 14.0849
17.3256 14.0457
17.3485 14.0136
17.3714 14.091
17.3943 14.1734
17.4172 14.3181
17.44 14.5529
17.4629 14.7867
17.4858 14.8223
17.5087 14.617
17.5316 14.359
17.5545 14.167
17.5774 14.0541
17.6003 14.0333
17.6231 14.0789
17.646 14.1553
17.6689 14.406
17.6918 14.939
17.7147 15.6471
17.7376 16.1887
17.7605 16.2931
17.7834 16.0162
17.8062 15.6254
17.8291 15.2057
17.852 14.9042
17.8749 14.5773
17.8978 14.2595
17.9207 14.0255
17.9436 13.8561
17.9664 13.8179
17.9893 13.7754
18.0122 13.7752
18.0351 13.7393
18.058 13.7914
18.0809 13.8124
18.1038 13.9289
18.1267 14.2607
18.1495 14.7967
18.1724 15.262
18.1953 15.3823
18.2182 15.1267
18.2411 14.629
18.264 14.1223
18.2869 13.7868
18.3098 13.6698
18.3326 13.6389
18.3555 13.6918
18.3784 13.9021
18.4013 14.2855
18.4242 14.7323
18.4471 15.0732
18.47 15.0791
18.4929 14.9259
18.5157 14.6275
18.5386 14.2919
18.5615 13.9721
18.5844 13.7157
18.6073 13.4762
18.6302 13.2717
18.6531 13.1527
18.676 13.1162
18.6988 13.0821
18.7217 13.031
18.7446 13.0154
18.7675 12.9911
18.7904 12.9622
18.8133 12.9147
18.8362 12.8752
18.859 12.8627
18.8819 12.8819
18.9048 12.8941
18.9277 12.8582
18.9506 12.8757
18.9735 12.8396
18.9964 12.8188
19.0193 12.8612
19.0421 12.922
19.065 13.0661
19.0879 13.3306
19.1108 13.5646
19.1337 13.7471
19.1566 13.9674
19.1795 14.0618
19.2024 13.9907
19.2252 13.8184
19.2481 13.5441
19.271 13.1778
19.2939 12.8584
19.3168 12.6834
19.3397 12.5698
19.3626 12.5187
19.3855 12.4606
19.4083 12.4515
19.4312 12.4886
19.4541 12.5155
19.477 12.634
19.4999 12.7978
19.5228 12.8397
19.5457 12.8333
19.5686 12.758
19.5914 12.6413
19.6143 12.4607
19.6372 12.3143
19.6601 12.2491
19.683 12.2109
19.7059 12.299
19.7288 12.3851
19.7516 12.5131
19.7745 12.5702
19.7974 12.5544
19.8203 12.4721
19.8432 12.3139
19.8661 12.1066
19.889 12.0225
19.9119 11.9825
19.9347 11.9169
19.9576 11.9153
19.9805 11.8643
20.0034 11.8436
20.0263 11.8142
20.0492 11.8072
20.0721 11.7957
20.095 11.7905
20.1178 11.8121
20.1407 11.8104
20.1636 11.8437
20.1865 11.835
20.2094 11.8192
20.2323 11.789
20.2552 11.7943
20.2781 11.7844
20.3009 11.8147
20.3238 11.9046
20.3467 12.0671
20.3696 12.3263
20.3925 12.5614
20.4154 12.6986
20.4383 12.7961
20.4612 12.7523
20.484 12.5119
20.5069 12.267
20.5298 12.0581
20.5527 11.869
20.5756 11.6624
20.5985 11.5504
20.6214 11.4943
20.6442 11.4539
20.6671 11.4315
20.69 11.446
20.7129 11.4751
20.7358 11.5299
20.7587 11.6053
20.7816 11.6197
20.8045 11.6313
20.8273 11.5994
20.8502 11.5613
20.8731 11.4079
20.896 11.3342
20.9189 11.2743
20.9418 11.3188
20.9647 11.4104
20.9876 11.5454
21.0104 11.5893
21.0333 11.6209
21.0562 11.6713
21.0791 11.6799
21.102 11.5659
21.1249 11.4016
21.1478 11.2649
21.1707 11.1793
21.1935 11.0805
21.2164 10.9655
21.2393 10.9159
21.2622 10.8815
21.2851 10.8561
21.308 10.8352
21.3309 10.8435
21.3538 10.8786
21.3766 10.8908
21.3995 10.8812
21.4224 10.864
21.4453 10.8501
21.4682 10.786
21.4911 10.7621
21.514 10.6785
21.5369 10.6856
21.5597 10.675
21.5826 10.7233
21.6055 10.7479
21.6284 10.7697
21.6513 10.804
21.6742 10.8
21.6971 10.7393
21.7199 10.6416
21.7428 10.5505
21.7657 10.4737
21.7886 10.4275
21.8115 10.3815
21.8344 10.3812
21.8573 10.3365
21.8802 10.3384
21.903 10.3747
21.9259 10.4256
21.9488 10.4741
21.9717 10.4887
21.9946 10.4412
22.0175 10.4366
22.0404 10.4227
22.0633 10.3949
22.0861 10.3016
22.109 10.294
22.1319 10.272
22.1548 10.3213
22.1777 10.3535
22.2006 10.3696
22.2235 10.365
22.2464 10.3255
22.2692 10.2234
22.2921 10.1335
22.315 10.0601
22.3379 9.95816
22.3608 9.9459
22.3837 9.9175
22.4066 9.89152
22.4295 9.87392
22.4523 9.86314
22.4752 9.82788
22.4981 9.86704
22.521 9.84886
22.5439 9.8233
22.5668 9.82007
22.5897 9.79155
22.6125 9.75816
22.6354 9.73885
22.6583 9.75891
22.6812 9.7337
22.7041 9.71521
22.727 9.72415
22.7499 9.72443
22.7728 9.80056
22.7956 9.84634
22.8185 9.82997
22.8414 9.82151
22.8643 9.77481
22.8872 9.75888
22.9101 9.6935
22.933 9.64429
22.9559 9.56467
22.9787 9.51133
23.0016 9.48382
23.0245 9.46774
23.0474 9.48641
23.0703 9.47646
23.0932 9.48109
23.1161 9.46336
23.139 9.45005
23.1618 9.46246
23.1847 9.45965
23.2076 9.40502
23.2305 9.41786
23.2534 9.42834
23.2763 9.46094
23.2992 9.41433
23.3221 9.42549
23.3449 9.45335
23.3678 9.46059
23.3907 9.43759
23.4136 9.34504
23.4365 9.30126
23.4594 9.21236
23.4823 9.11967
23.5051 9.09804
23.528 9.0562
23.5509 9.06051
23.5738 9.04547
23.5967 9.07954
23.6196 9.05273
23.6425 9.01277
23.6654 8.99084
23.6882 9.01445
23.7111 8.96137
23.734 8.99379
23.7569 8.97834
23.7798 8.96943
23.8027 8.99928
23.8256 9.03598
23.8485 9.03537
23.8713 9.02469
23.8942 9.02077
23.9171 9.0156
23.94 8.96385
23.9629 8.9134
23.9858 8.86206
24.0087 8.80158
24.0316 8.75283
24.0544 8.71369
24.0773 8.67594
24.1002 8.65008
24.1231 8.64807
24.146 8.63464
24.1689 8.61023
24.1918 8.61191
24.2147 8.56694
24.2375 8.54646
24.2604 8.54534
24.2833 8.52433
24.3062 8.5039
24.3291 8.50364
24.352 8.48019
24.3749 8.43905
24.3977 8.41497
24.4206 8.39546
24.4435 8.4059
24.4664 8.36944
24.4893 8.34987
24.5122 8.30786
24.5351 8.25903
24.558 8.27798
24.5808 8.2441
24.6037 8.23585
24.6266 8.19761
24.6495 8.20269
24.6724 8.18
24.6953 8.18262
24.7182 8.15904
24.7411 8.1907
24.7639 8.11157
24.7868 8.09969
24.8097 8.10139
24.8326 8.09481
24.8555 8.11357
24.8784 8.09432
24.9013 8.09587
24.9242 8.08636
24.947 8.09161
24.9699 8.0952
24.9928 8.05608
