[DEFAULT]

version = diffpy.pdfgetx-2.1.0

# input and output specifications
dataformat = QA
backgroundfile =
outputtype = iq

# PDF calculation setup
mode = xray
composition = Ni
bgscale = 1
rpoly = 2
qmaxinst = 25
qmin = 0
qmax = 24
rmin = 2
rmax = 60
rstep = 0.01

# End of config --------------------------------------------------------------

#### start data
#S 1
#L Q(Ã…$^{-1}$)  intensity(a.u.)
0 4.8128
0.0227393 4.8128
0.0454785 5.16838
0.0682178 5.16404
0.0909571 5.05657
0.113696 4.92387
0.136436 4.55804
0.159175 4.92813
0.181914 5.16889
0.204653 5.45037
0.227393 5.78307
0.250132 6.60804
0.272871 9.04736
0.29561 13.5071
0.31835 27.6007
0.341089 53.893
0.363828 73.8719
0.386567 56.7709
0.409307 40.8355
0.432046 32.2753
0.454785 28.8813
0.477525 30.5491
0.500264 32.7403
0.523003 34.5864
0.545742 36.317
0.568482 39.0554
0.591221 42.2754
0.61396 45.612
0.636699 49.8867
0.659439 53.9558
0.682178 57.6665
0.704917 61.2113
0.727656 64.2931
0.750396 67.025
0.773135 69.0288
0.795874 70.2002
0.818614 70.1663
0.841353 69.9234
0.864092 69.9531
0.886831 70.4157
0.909571 71.3336
0.93231 72.7222
0.955049 74.7706
0.977788 76.8914
1.00053 78.8892
1.02327 80.4559
1.04601 81.3045
1.06875 81.5388
1.09148 81.5704
1.11422 81.9806
1.13696 82.6099
1.1597 83.1932
1.18244 83.5858
1.20518 83.7296
1.22792 83.9336
1.25066 84.5061
1.2734 85.0779
1.29614 85.7252
1.31888 86.2916
1.34162 86.5649
1.36436 86.7038
1.3871 86.4047
1.40983 85.6274
1.43257 84.7176
1.45531 83.6887
1.47805 82.4207
1.50079 81.0661
1.52353 79.3605
1.54627 77.255
1.56901 74.7677
1.59175 72.1216
1.61449 69.4187
1.63723 66.7857
1.65997 64.5527
1.68271 62.585
1.70544 60.9787
1.72818 59.6494
1.75092 58.54
1.77366 57.712
1.7964 57.2815
1.81914 56.4967
1.84188 55.4814
1.86462 54.4507
1.88736 53.3419
1.9101 52.1286
1.93284 50.836
1.95558 49.7688
1.97832 48.5715
2.00106 47.3019
2.02379 46.1499
2.04653 45.0702
2.06927 44.0144
2.09201 43.0643
2.11475 42.3884
2.13749 41.943
2.16023 41.4313
2.18297 40.6752
2.20571 40.043
2.22845 39.4013
2.25119 38.739
2.27393 38.2625
2.29667 37.9679
2.3194 37.5668
2.34214 37.159
2.36488 36.8451
2.38762 36.6133
2.41036 36.3563
2.4331 36.2553
2.45584 36.2175
2.47858 36.1868
2.50132 36.1231
2.52406 36.1968
2.5468 36.2438
2.56954 36.2323
2.59228 36.1896
2.61502 36.2634
2.63775 36.4297
2.66049 36.6154
2.68323 36.746
2.70597 36.9092
2.72871 37.0749
2.75145 37.1831
2.77419 37.3661
2.79693 37.638
2.81967 37.9652
2.84241 38.432
2.86515 39.0952
2.88789 39.938
2.91063 41.3165
2.93337 43.6665
2.9561 48.4805
2.97884 59.5541
3.00158 89.0379
3.02432 176.303
3.04706 406.951
3.0698 752.969
3.09254 885.786
3.11528 620.593
3.13802 305.371
3.16076 138.115
3.1835 77.0308
3.20624 54.8793
3.22898 45.6692
3.25171 41.5132
3.27445 39.2074
3.29719 37.632
3.31993 36.5722
3.34267 35.8789
3.36541 35.4357
3.38815 35.5131
3.41089 36.1393
3.43363 38.1369
3.45637 43.5264
3.47911 57.8894
3.50185 101.12
3.52459 203.737
3.54733 367.771
3.57006 429.019
3.5928 311.211
3.61554 158.763
3.63828 78.0883
3.66102 47.9306
3.68376 37.0915
3.7065 32.4992
3.72924 30.2701
3.75198 29.1718
3.77472 28.4524
3.79746 27.9547
3.8202 27.4752
3.84294 27.0065
3.86567 26.5506
3.88841 26.1927
3.91115 26.0291
3.93389 25.7314
3.95663 25.5057
3.97937 25.3545
4.00211 25.112
4.02485 24.8766
4.04759 24.667
4.07033 24.5342
4.09307 24.3948
4.11581 24.3114
4.13855 24.2427
4.16129 24.1945
4.18402 24.0812
4.20676 24.0342
4.2295 23.9249
4.25224 23.7891
4.27498 23.7458
4.29772 23.7395
4.32046 23.6795
4.3432 23.5694
4.36594 23.5123
4.38868 23.5151
4.41142 23.5083
4.43416 23.494
4.4569 23.435
4.47963 23.4541
4.50237 23.4965
4.52511 23.5648
4.54785 23.5581
4.57059 23.6174
4.59333 23.6764
4.61607 23.6905
4.63881 23.8102
4.66155 23.9127
4.68429 23.974
4.70703 24.102
4.72977 24.2729
4.75251 24.485
4.77525 24.6264
4.79798 24.8812
4.82072 25.1358
4.84346 25.5161
4.8662 26.1086
4.88894 27.1158
4.91168 28.906
4.93442 32.7134
4.95716 42.931
4.9799 71.8948
5.00264 141.376
5.02538 244.816
5.04812 276.647
5.07086 196.182
5.0936 102.642
5.11633 55.6449
5.13907 38.1128
5.16181 31.6635
5.18455 29.0725
5.20729 27.9131
5.23003 27.3348
5.25277 26.8842
5.27551 26.6488
5.29825 26.4882
5.32099 26.3328
5.34373 26.2152
5.36647 26.1316
5.38921 26.0732
5.41194 25.9534
5.43468 25.8893
5.45742 25.8588
5.48016 25.8145
5.5029 25.7948
5.52564 25.8299
5.54838 25.9157
5.57112 25.9875
5.59386 26.0273
5.6166 26.1215
5.63934 26.3086
5.66208 26.528
5.68482 26.7695
5.70756 27.0769
5.73029 27.5211
5.75303 28.2635
5.77577 29.6888
5.79851 32.7729
5.82125 40.4623
5.84399 62.5061
5.86673 119.354
5.88947 219.816
5.91221 285.131
5.93495 232.548
5.95769 129.749
5.98043 67.2751
6.00317 41.9621
6.0259 33.2366
6.04864 30.263
6.07138 29.8642
6.09412 32.3065
6.11686 40.8294
6.1396 61.5227
6.16234 87.2615
6.18508 91.7172
6.20782 67.9387
6.23056 43.2183
6.2533 31.3883
6.27604 26.8813
6.29878 25.1046
6.32152 24.2592
6.34425 23.8124
6.36699 23.4409
6.38973 23.0818
6.41247 22.8288
6.43521 22.6277
6.45795 22.507
6.48069 22.3465
6.50343 22.1342
6.52617 22.0208
6.54891 21.9183
6.57165 21.8297
6.59439 21.7675
6.61713 21.6525
6.63987 21.5617
6.6626 21.4423
6.68534 21.3138
6.70808 21.2605
6.73082 21.2215
6.75356 21.1416
6.7763 21.0507
6.79904 21.0263
6.82178 20.935
6.84452 20.9522
6.86726 20.9695
6.89 20.9378
6.91274 20.9307
6.93548 20.9193
6.95821 20.9701
6.98095 21.0952
7.00369 21.2546
7.02643 21.7076
7.04917 23.0396
7.07191 26.5174
7.09465 34.2689
7.11739 44.3626
7.14013 46.3105
7.16287 37.737
7.18561 28.3665
7.20835 23.7332
7.23109 22.0118
7.25383 21.3741
7.27656 21.0902
7.2993 20.9881
7.32204 20.9749
7.34478 21.0021
7.36752 20.9895
7.39026 21.0523
7.413 21.1075
7.43574 21.134
7.45848 21.1866
7.48122 21.2907
7.50396 21.3835
7.5267 21.5345
7.54944 21.6707
7.57217 21.8104
7.59491 22.1376
7.61765 22.6035
7.64039 23.256
7.66313 24.5795
7.68587 28.0083
7.70861 37.4088
7.73135 59.9407
7.75409 92.9662
7.77683 103.903
7.79957 79.6389
7.82231 49.1406
7.84505 33.7028
7.86779 29.019
7.89052 30.0726
7.91326 38.3667
7.936 58.1184
7.95874 84.9423
7.98148 90.6536
8.00422 67.8662
8.02696 42.6755
8.0497 29.9927
8.07244 25.2656
8.09518 23.4371
8.11792 22.604
8.14066 22.2052
8.1634 21.9144
8.18614 21.7548
8.20887 21.6775
8.23161 21.5598
8.25435 21.4377
8.27709 21.3091
8.29983 21.247
8.32257 21.2255
8.34531 21.2399
8.36805 21.1526
8.39079 21.1141
8.41353 21.1378
8.43627 21.1434
8.45901 21.1552
8.48175 21.1639
8.50448 21.1934
8.52722 21.3076
8.54996 21.3774
8.5727 21.519
8.59544 21.8401
8.61818 22.405
8.64092 23.8059
8.66366 27.6296
8.6864 37.7278
8.70914 55.9745
8.73188 68.4437
8.75462 59.8128
8.77736 41.5101
8.8001 29.3163
8.82283 24.3246
8.84557 22.5215
8.86831 21.8252
8.89105 21.4457
8.91379 21.2481
8.93653 21.113
8.95927 21.0301
8.98201 20.9944
9.00475 20.9086
9.02749 20.8146
9.05023 20.8811
9.07297 20.9466
9.09571 20.9597
9.11844 21.1469
9.14118 21.6133
9.16392 22.6136
9.18666 25.3765
9.2094 32.889
9.23214 48.4487
9.25488 64.4861
9.27762 62.2018
9.30036 45.3313
9.3231 30.8374
9.34584 24.2844
9.36858 21.9171
9.39132 20.929
9.41406 20.4376
9.43679 20.2092
9.45953 20.0519
9.48227 19.9077
9.50501 19.8557
9.52775 19.771
9.55049 19.6676
9.57323 19.5659
9.59597 19.4757
9.61871 19.4067
9.64145 19.3959
9.66419 19.4148
9.68693 19.4047
9.70967 19.3769
9.7324 19.3552
9.75514 19.3043
9.77788 19.2777
9.80062 19.2728
9.82336 19.293
9.8461 19.3316
9.86884 19.3177
9.89158 19.3663
9.91432 19.4453
9.93706 19.5309
9.9598 19.6318
9.98254 19.8594
10.0053 20.4849
10.028 22.1675
10.0508 25.5997
10.0735 29.4864
10.0962 29.6226
10.119 25.8467
10.1417 22.4574
10.1645 20.8356
10.1872 20.209
10.2099 20.0126
10.2327 19.9586
10.2554 19.9279
10.2781 19.9389
10.3009 19.9946
10.3236 20.0225
10.3464 20.098
10.3691 20.2519
10.3918 20.4305
10.4146 20.7796
10.4373 21.427
10.4601 23.0338
10.4828 27.2977
10.5055 37.3824
10.5283 52.3452
10.551 58.9284
10.5738 48.5745
10.5965 34.5745
10.6192 27.7683
10.642 28.1215
10.6647 34.1159
10.6875 40.9763
10.7102 40.0285
10.7329 31.9906
10.7557 25.1484
10.7784 21.9955
10.8012 20.8124
10.8239 20.3146
10.8466 20.0343
10.8694 19.8236
10.8921 19.6962
10.9148 19.5631
10.9376 19.4691
10.9603 19.406
10.9831 19.3376
11.0058 19.2627
11.0285 19.2507
11.0513 19.2301
11.074 19.1747
11.0968 19.1536
11.1195 19.1267
11.1422 19.1818
11.165 19.3462
11.1877 19.8712
11.2105 21.3137
11.2332 24.7555
11.2559 29.7342
11.2787 31.5786
11.3014 28.0463
11.3242 23.2696
11.3469 20.4837
11.3696 19.3891
11.3924 18.9733
11.4151 18.7992
11.4378 18.6988
11.4606 18.6299
11.4833 18.6286
11.5061 18.6458
11.5288 18.6802
11.5515 18.7444
11.5743 18.8667
11.597 19.1904
11.6198 20.177
11.6425 22.5815
11.6652 26.8392
11.688 29.7807
11.7107 27.9986
11.7335 23.9136
11.7562 21.9452
11.7789 22.9597
11.8017 26.1163
11.8244 28.2371
11.8472 26.2685
11.8699 22.4746
11.8926 19.963
11.9154 18.8646
11.9381 18.393
11.9609 18.1928
11.9836 18.0994
12.0063 18.0273
12.0291 17.9903
12.0518 17.9444
12.0745 17.8954
12.0973 17.8579
12.12 17.8234
12.1428 17.7522
12.1655 17.7791
12.1882 17.8032
12.211 17.7928
12.2337 17.8258
12.2565 17.9392
12.2792 18.1714
12.3019 18.684
12.3247 19.6248
12.3474 20.353
12.3702 19.9922
12.3929 18.9814
12.4156 18.2677
12.4384 17.9565
12.4611 17.8506
12.4839 17.8249
12.5066 17.8249
12.5293 17.8984
12.5521 17.9535
12.5748 18.0151
12.5976 18.1273
12.6203 18.3837
12.643 19.0153
12.6658 20.6623
12.6885 24.4382
12.7112 29.9867
12.734 32.6374
12.7567 29.0684
12.7795 24.0463
12.8022 22.1163
12.8249 23.2666
12.8477 25.0335
12.8704 24.3801
12.8932 21.6652
12.9159 19.4935
12.9386 18.5504
12.9614 18.193
12.9841 18.0459
13.0069 17.9475
13.0296 17.8684
13.0523 17.8399
13.0751 17.7792
13.0978 17.7901
13.1206 17.8287
13.1433 17.7922
13.166 17.8029
13.1888 17.8597
13.2115 17.9878
13.2343 18.1762
13.257 18.7362
13.2797 20.2034
13.3025 23.4263
13.3252 27.6216
13.3479 28.6851
13.3707 25.1656
13.3934 21.1392
13.4162 19.0713
13.4389 18.3405
13.4616 18.0689
13.4844 17.954
13.5071 17.8857
13.5299 17.8555
13.5526 17.8934
13.5753 18.0338
13.5981 18.487
13.6208 19.6758
13.6436 22.6845
13.6663 27.9693
13.689 31.8597
13.7118 29.812
13.7345 24.1536
13.7573 20.1314
13.78 18.4119
13.8027 17.7022
13.8255 17.452
13.8482 17.3101
13.871 17.2309
13.8937 17.1279
13.9164 17.0165
13.9392 16.9506
13.9619 16.9262
13.9846 16.8693
14.0074 16.8231
14.0301 16.7611
14.0529 16.7261
14.0756 16.6832
14.0983 16.6433
14.1211 16.6049
14.1438 16.5725
14.1666 16.5916
14.1893 16.6432
14.212 16.8123
14.2348 17.1075
14.2575 17.2718
14.2803 17.1429
14.303 16.8478
14.3257 16.6321
14.3485 16.4629
14.3712 16.4186
14.394 16.3865
14.4167 16.3906
14.4394 16.3958
14.4622 16.4275
14.4849 16.5112
14.5077 16.7276
14.5304 17.1959
14.5531 18.1596
14.5759 19.4477
14.5986 19.9178
14.6213 19.2929
14.6441 19.1537
14.6668 20.5192
14.6896 22.329
14.7123 22.1377
14.735 19.9645
14.7578 17.923
14.7805 16.8901
14.8033 16.5006
14.826 16.3278
14.8487 16.2725
14.8715 16.1835
14.8942 16.1686
14.917 16.1649
14.9397 16.1892
14.9624 16.1517
14.9852 16.1064
15.0079 16.1661
15.0307 16.2926
15.0534 16.623
15.0761 17.4557
15.0989 18.8431
15.1216 19.8821
15.1443 19.3721
15.1671 17.9382
15.1898 16.8207
15.2126 16.3164
15.2353 16.14
15.258 16.0937
15.2808 16.0761
15.3035 16.0822
15.3263 16.1863
15.349 16.4224
15.3717 17.0557
15.3945 18.5102
15.4172 20.6863
15.44 21.7319
15.4627 20.4745
15.4854 18.7557
15.5082 18.2071
15.5309 18.3746
15.5537 18.078
15.5764 17.1955
15.5991 16.4148
15.6219 15.9994
15.6446 15.8398
15.6674 15.7612
15.6901 15.6986
15.7128 15.6862
15.7356 15.6577
15.7583 15.6269
15.781 15.5801
15.8038 15.5345
15.8265 15.5424
15.8493 15.6165
15.872 15.7769
15.8947 16.1513
15.9175 16.7401
15.9402 17.194
15.963 16.959
15.9857 16.3217
16.0084 15.8152
16.0312 15.5703
16.0539 15.487
16.0767 15.4878
16.0994 15.5318
16.1221 15.5778
16.1449 15.7275
16.1676 16.1851
16.1904 17.2672
16.2131 19.1319
16.2358 20.524
16.2586 20.0169
16.2813 18.6429
16.3041 18.285
16.3268 18.7037
16.3495 18.4166
16.3723 17.2301
16.395 16.1013
16.4177 15.5062
16.4405 15.2927
16.4632 15.1332
16.486 15.0034
16.5087 14.9253
16.5314 14.8796
16.5542 14.8852
16.5769 14.8606
16.5997 14.8473
16.6224 14.8217
16.6451 14.884
16.6679 15.1528
16.6906 15.6378
16.7134 16.0442
16.7361 15.9289
16.7588 15.4182
16.7816 14.9782
16.8043 14.72
16.8271 14.5949
16.8498 14.5589
16.8725 14.5329
16.8953 14.5326
16.918 14.6463
16.9408 14.9377
16.9635 15.6123
16.9862 16.4425
17.009 16.7062
17.0317 16.051
17.0544 15.1593
17.0772 14.6274
17.0999 14.3882
17.1227 14.2821
17.1454 14.2348
17.1681 14.1714
17.1909 14.168
17.2136 14.1503
17.2364 14.0895
17.2591 14.0881
17.2818 14.0866
17.3046 14.0547
17.3273 14.0289
17.3501 14.0417
17.3728 14.1008
17.3955 14.1952
17.4183 14.4292
17.441 14.8212
17.4638 15.0087
17.4865 14.7839
17.5092 14.4179
17.532 14.166
17.5547 14.0668
17.5775 14.0513
17.6002 14.034
17.6229 14.0645
17.6457 14.205
17.6684 14.5307
17.6911 15.2841
17.7139 16.3026
17.7366 16.7994
17.7594 16.3004
17.7821 15.5673
17.8048 15.2667
17.8276 15.1224
17.8503 14.7824
17.8731 14.3579
17.8958 14.027
17.9185 13.8829
17.9413 13.8555
17.964 13.7804
17.9868 13.768
18.0095 13.7552
18.0322 13.7375
18.055 13.7739
18.0777 13.8347
18.1005 13.9602
18.1232 14.381
18.1459 15.1475
18.1687 15.809
18.1914 15.6741
18.2142 14.8856
18.2369 14.1832
18.2596 13.8243
18.2824 13.6767
18.3051 13.6249
18.3278 13.6288
18.3506 13.6836
18.3733 13.9372
18.3961 14.4857
18.4188 15.2305
18.4415 15.5006
18.4643 15.1112
18.487 14.6249
18.5098 14.4243
18.5325 14.2375
18.5552 13.8907
18.578 13.5052
18.6007 13.2887
18.6235 13.1877
18.6462 13.1551
18.6689 13.0679
18.6917 13.05
18.7144 13.0511
18.7372 13.0046
18.7599 12.9686
18.7826 12.9331
18.8054 12.9112
18.8281 12.8655
18.8508 12.8659
18.8736 12.8669
18.8963 12.8894
18.9191 12.8675
18.9418 12.8441
18.9645 12.8161
18.9873 12.8245
19.01 12.8363
19.0328 12.8816
19.0555 13.0581
19.0782 13.387
19.101 13.8057
19.1237 13.9495
19.1465 13.916
19.1692 14.1047
19.1919 14.2461
19.2147 13.961
19.2374 13.377
19.2602 12.9236
19.2829 12.6935
19.3056 12.6166
19.3284 12.5355
19.3511 12.4853
19.3739 12.4363
19.3966 12.4419
19.4193 12.4413
19.4421 12.5006
19.4648 12.5958
19.4875 12.8367
19.5103 13.0516
19.533 13.0269
19.5558 12.7849
19.5785 12.4783
19.6012 12.3391
19.624 12.2504
19.6467 12.2068
19.6695 12.1696
19.6922 12.2458
19.7149 12.3873
19.7377 12.6177
19.7604 12.7845
19.7832 12.7068
19.8059 12.4015
19.8286 12.1481
19.8514 12.0136
19.8741 11.9755
19.8969 11.9486
19.9196 11.9351
19.9423 11.8744
19.9651 11.8742
19.9878 11.8651
20.0106 11.8159
20.0333 11.7581
20.056 11.7801
20.0788 11.7846
20.1015 11.8006
20.1242 11.8364
20.147 11.8748
20.1697 11.8804
20.1925 11.8187
20.2152 11.7723
20.2379 11.7864
20.2607 11.7437
20.2834 11.7543
20.3062 11.8118
20.3289 11.963
20.3516 12.3113
20.3744 12.7837
20.3971 13.1113
20.4199 13.0071
20.4426 12.7108
20.4653 12.4607
20.4881 12.2551
20.5108 11.9763
20.5336 11.7406
20.5563 11.5921
20.579 11.5192
20.6018 11.4707
20.6245 11.4325
20.6473 11.4459
20.67 11.4366
20.6927 11.4372
20.7155 11.4572
20.7382 11.5632
20.7609 11.7245
20.7837 11.8133
20.8064 11.6801
20.8292 11.5118
20.8519 11.3475
20.8746 11.2386
20.8974 11.2432
20.9201 11.2619
20.9429 11.3302
20.9656 11.4848
20.9883 11.6899
21.0111 11.8266
21.0338 11.7812
21.0566 11.6541
21.0793 11.559
21.102 11.4476
21.1248 11.2656
21.1475 11.0862
21.1703 11.0017
21.193 10.9444
21.2157 10.9218
21.2385 10.8675
21.2612 10.8165
21.284 10.8114
21.3067 10.8218
21.3294 10.8273
21.3522 10.9113
21.3749 10.976
21.3976 10.9463
21.4204 10.8636
21.4431 10.7472
21.4659 10.6981
21.4886 10.6603
21.5113 10.63
21.5341 10.615
21.5568 10.7054
21.5796 10.7911
21.6023 10.8868
21.625 10.9052
21.6478 10.8281
21.6705 10.7386
21.6933 10.6362
21.716 10.5431
21.7387 10.4435
21.7615 10.3991
21.7842 10.3816
21.807 10.3468
21.8297 10.3386
21.8524 10.3002
21.8752 10.3204
21.8979 10.3614
21.9207 10.4431
21.9434 10.5854
21.9661 10.6278
21.9889 10.5449
22.0116 10.3932
22.0343 10.2904
22.0571 10.2313
22.0798 10.1846
22.1026 10.1815
22.1253 10.2425
22.148 10.3923
22.1708 10.5661
22.1935 10.5597
22.2163 10.3887
22.239 10.174
22.2617 10.0353
22.2845 9.99508
22.3072 9.96054
22.33 9.93249
22.3527 9.9309
22.3754 9.89209
22.3982 9.86942
22.4209 9.85321
22.4437 9.8451
22.4664 9.81429
22.4891 9.80297
22.5119 9.85408
22.5346 9.84709
22.5573 9.83231
22.5801 9.81151
22.6028 9.74379
22.6256 9.68804
22.6483 9.68023
22.671 9.70735
22.6938 9.74004
22.7165 9.73101
22.7393 9.74939
22.762 9.80579
22.7847 9.8853
22.8075 9.94872
22.8302 9.9222
22.853 9.80245
22.8757 9.66581
22.8984 9.55956
22.9212 9.52573
22.9439 9.48153
22.9667 9.44324
22.9894 9.44761
23.0121 9.48175
23.0349 9.49807
23.0576 9.48986
23.0804 9.51469
23.1031 9.51475
23.1258 9.45055
23.1486 9.41585
23.1713 9.38175
23.194 9.34796
23.2168 9.3546
23.2395 9.39495
23.2623 9.47711
23.285 9.58582
23.3077 9.583
23.3305 9.51286
23.3532 9.40581
23.376 9.31627
23.3987 9.2536
23.4214 9.19693
23.4442 9.14519
23.4669 9.07307
23.4897 9.06959
23.5124 9.04828
23.5351 9.03985
23.5579 9.05521
23.5806 9.04922
23.6034 9.02388
23.6261 9.0015
23.6488 9.00558
23.6716 8.98729
23.6943 8.95972
23.7171 8.95601
23.7398 8.93507
23.7625 8.94194
23.7853 8.97162
23.808 9.05019
23.8307 9.11815
23.8535 9.122
23.8762 9.10675
23.899 9.00242
23.9217 8.93532
23.9444 8.8452
23.9672 8.75605
23.9899 8.71095
24.0127 8.6811
24.0354 8.65922
24.0581 8.65099
24.0809 8.66931
24.1036 8.6248
24.1264 8.60414
24.1491 8.62579
24.1718 8.61603
24.1946 8.5972
24.2173 8.53203
24.2401 8.47342
24.2628 8.46552
24.2855 8.47731
24.3083 8.46272
24.331 8.47756
24.3538 8.46662
24.3765 8.43469
24.3992 8.38869
24.422 8.3721
24.4447 8.36986
24.4674 8.32169
24.4902 8.26778
24.5129 8.26124
24.5357 8.24913
24.5584 8.2345
24.5811 8.22685
24.6039 8.20283
24.6266 8.19225
24.6494 8.17451
24.6721 8.17063
24.6948 8.14692
24.7176 8.14182
24.7403 8.12059
24.7631 8.07192
24.7858 8.08049
24.8085 8.08437
24.8313 8.09922
24.854 8.1363
24.8768 8.12602
24.8995 8.12618
24.9222 8.1186
24.945 8.07913
24.9677 8.0245
24.9905 7.97184
